Planet        mass  radius density       g      ve       a   Tsurf     Teq    ESIi    ESIs    ESIg
                Name        (EU)    (EU)    (EU)    (EU)    (EU)    (AU)     (K)     (K)                        
================================================================================================================
              701.03       6.935    1.70    1.41    2.40    2.02    0.45    292.    262.   0.830   0.849   0.840
              326.01       0.709    0.90    0.97    0.87    0.89    0.05    362.    332.   0.977   0.699   0.826
             1026.01       8.544    1.80    1.46    2.64    2.18    0.33    272.    242.   0.812   0.784   0.798
              854.01      10.408    1.90    1.52    2.88    2.34    0.22    278.    248.   0.794   0.795   0.795
             1361.01       6.655    2.20    0.62    1.37    1.74    0.24    309.    279.   0.759   0.811   0.784
              268.01       8.544    1.80    1.46    2.64    2.18    0.41    325.    295.   0.812   0.715   0.762
               87.01       8.203    2.40    0.59    1.42    1.85    0.88    312.    282.   0.733   0.789   0.760
              812.03       5.951    2.10    0.64    1.35    1.68    0.21    331.    301.   0.773   0.738   0.755
             1503.01      10.888    2.70    0.55    1.49    2.01    0.54    272.    242.   0.699   0.800   0.747
              364.01       9.943    2.60    0.57    1.47    1.96    0.62    343.    313.   0.710   0.676   0.693
              536.01      14.026    3.00    0.52    1.56    2.16    0.59    326.    296.   0.668   0.713   0.690
              555.02       7.405    2.30    0.61    1.40    1.79    0.38    361.    331.   0.746   0.638   0.690
             1099.01      23.220    3.70    0.46    1.70    2.51    0.57    274.    244.   0.610   0.766   0.684
               70.03      12.550    2.00    1.57    3.14    2.51    0.35    363.    333.   0.778   0.584   0.674
              416.02      11.882    2.80    0.54    1.52    2.06    0.38    347.    317.   0.688   0.657   0.672
              314.02       5.559    1.60    1.36    2.17    1.86    0.13    406.    376.   0.849   0.524   0.667
             1472.01      21.740    3.60    0.47    1.68    2.46    0.37    325.    295.   0.617   0.694   0.655
             1429.01      31.492    4.20    0.43    1.79    2.74    0.69    306.    276.   0.576   0.738   0.652
              817.01       5.951    2.10    0.64    1.35    1.68    0.13    400.    370.   0.773   0.550   0.652
             1423.01      33.324    4.30    0.42    1.80    2.78    0.47    304.    274.   0.570   0.741   0.650
              683.01      31.492    4.20    0.43    1.79    2.74    0.84    269.    239.   0.576   0.729   0.648
              711.03       9.943    2.60    0.57    1.47    1.96    0.49    375.    345.   0.710   0.589   0.647
              365.01       7.405    2.30    0.61    1.40    1.79    0.37    393.    363.   0.746   0.558   0.645
             1168.01      26.353    3.90    0.44    1.73    2.60    1.22    321.    291.   0.596   0.697   0.644
              174.01       9.049    2.50    0.58    1.45    1.90    0.27    385.    355.   0.721   0.569   0.640
              465.01      43.411    4.80    0.39    1.88    3.01    1.00    296.    266.   0.542   0.755   0.639
             1355.01      11.882    2.80    0.54    1.52    2.06    0.27    372.    342.   0.688   0.589   0.637
             1582.01      37.172    4.50    0.41    1.84    2.88    0.63    270.    240.   0.558   0.724   0.636
              952.03       8.203    2.40    0.59    1.42    1.85    0.12    395.    365.   0.733   0.549   0.635
             1596.02      20.317    3.50    0.47    1.66    2.41    0.42    346.    316.   0.625   0.635   0.630
              947.01      10.888    2.70    0.55    1.49    2.01    0.15    383.    353.   0.699   0.566   0.629
              899.03       6.935    1.70    1.41    2.40    2.02    0.09    427.    397.   0.830   0.474   0.627
              494.01       8.544    1.80    1.46    2.64    2.18    0.16    418.    388.   0.812   0.482   0.625
              518.02      10.408    1.90    1.52    2.88    2.34    0.23    417.    387.   0.794   0.476   0.615
              446.02       6.935    1.70    1.41    2.40    2.02    0.16    441.    411.   0.830   0.449   0.610
              504.01       6.935    1.70    1.41    2.40    2.02    0.23    441.    411.   0.830   0.449   0.610
             1591.01       4.392    1.50    1.30    1.95    1.71    0.13    464.    434.   0.870   0.427   0.610
              812.02       6.655    2.20    0.62    1.37    1.74    0.12    428.    398.   0.759   0.488   0.609
             1175.01       0.709    0.90    0.97    0.87    0.89    0.20    523.    493.   0.977   0.377   0.607
              881.02      26.353    3.90    0.44    1.73    2.60    0.69    238.    208.   0.596   0.616   0.606
              331.01       1.416    1.10    1.06    1.17    1.13    0.13    524.    494.   0.970   0.375   0.603
              486.01       3.414    1.40    1.24    1.74    1.56    0.15    484.    454.   0.892   0.405   0.601
              718.03       4.392    1.50    1.30    1.95    1.71    0.26    473.    443.   0.870   0.413   0.600
              902.01      65.615    5.70    0.35    2.02    3.39    0.32    300.    270.   0.499   0.717   0.598
             1199.01      10.888    2.70    0.55    1.49    2.01    0.26    409.    379.   0.699   0.509   0.596
              935.03       9.049    2.50    0.58    1.45    1.90    0.40    421.    391.   0.721   0.492   0.595
              111.04       9.049    2.50    0.58    1.45    1.90    0.44    421.    391.   0.721   0.492   0.595
             1564.01      15.176    3.10    0.51    1.58    2.21    0.28    390.    360.   0.659   0.538   0.595
              717.01       0.709    0.90    0.97    0.87    0.89    0.11    540.    510.   0.977   0.356   0.589
             1301.02       7.405    2.30    0.61    1.40    1.79    0.21    439.    409.   0.746   0.465   0.589
              157.05      16.380    3.20    0.50    1.60    2.26    0.48    391.    361.   0.650   0.533   0.588
             1372.01       6.655    2.20    0.62    1.37    1.74    0.34    446.    416.   0.759   0.456   0.588
             1478.01      23.220    3.70    0.46    1.70    2.51    0.35    371.    341.   0.610   0.565   0.587
              270.02       1.000    1.00    1.00    1.00    1.00    0.20    559.    529.   1.000   0.341   0.584
              663.02       6.935    1.70    1.41    2.40    2.02    0.12    466.    436.   0.830   0.408   0.582
              223.02       8.203    2.40    0.59    1.42    1.85    0.23    440.    410.   0.733   0.460   0.581
              374.01      17.637    3.30    0.49    1.62    2.31    0.63    395.    365.   0.641   0.521   0.578
              682.01      45.617    4.90    0.39    1.90    3.05    0.59    337.    307.   0.536   0.622   0.578
              448.02      24.758    3.80    0.45    1.71    2.55    0.21    376.    346.   0.603   0.550   0.576
              139.01      65.615    5.70    0.35    2.02    3.39    0.74    318.    288.   0.499   0.659   0.574
               51.01      43.411    4.80    0.39    1.88    3.01    0.06    344.    314.   0.542   0.605   0.573
              247.01       5.951    2.10    0.64    1.35    1.68    0.09    467.    437.   0.773   0.424   0.573
             1439.01      29.719    4.10    0.43    1.77    2.69    2.23    225.    195.   0.582   0.560   0.571
              260.02       6.655    2.20    0.62    1.37    1.74    0.43    464.    434.   0.759   0.426   0.568
             1276.01       4.392    1.50    1.30    1.95    1.71    0.15    504.    474.   0.870   0.370   0.567
              784.01       7.405    2.30    0.61    1.40    1.79    0.12    459.    429.   0.746   0.431   0.567
              252.01      10.888    2.70    0.55    1.49    2.01    0.10    436.    406.   0.699   0.458   0.566
             1360.01      10.888    2.70    0.55    1.49    2.01    0.21    438.    408.   0.699   0.455   0.563
             1435.01       6.935    1.70    1.41    2.40    2.02    0.23    484.    454.   0.830   0.382   0.563
             1302.01       8.203    2.40    0.59    1.42    1.85    0.29    457.    427.   0.733   0.431   0.562
              560.01       8.544    1.80    1.46    2.64    2.18    0.15    475.    445.   0.812   0.388   0.561
              898.03       9.049    2.50    0.58    1.45    1.90    0.12    454.    424.   0.721   0.433   0.559
             1146.01       2.605    1.30    1.19    1.54    1.42    0.06    542.    512.   0.916   0.338   0.556
             1281.01      12.550    2.00    1.57    3.14    2.51    0.27    461.    431.   0.778   0.395   0.554
              757.02      17.637    3.30    0.49    1.62    2.31    0.22    417.    387.   0.641   0.477   0.553
              775.01       5.951    2.10    0.64    1.35    1.68    0.10    488.    458.   0.773   0.393   0.551
              842.02      15.176    3.10    0.51    1.58    2.21    0.20    429.    399.   0.659   0.460   0.551
              148.03      12.550    2.00    1.57    3.14    2.51    0.23    465.    435.   0.778   0.389   0.550
              814.01       8.544    1.80    1.46    2.64    2.18    0.15    486.    456.   0.812   0.373   0.550
              584.02       4.392    1.50    1.30    1.95    1.71    0.15    522.    492.   0.870   0.347   0.550
              314.01      10.408    1.90    1.52    2.88    2.34    0.09    476.    446.   0.794   0.380   0.549
              291.01       4.392    1.50    1.30    1.95    1.71    0.20    525.    495.   0.870   0.344   0.547
             1508.01       5.559    1.60    1.36    2.17    1.86    0.15    513.    483.   0.849   0.351   0.546
              835.01       5.559    1.60    1.36    2.17    1.86    0.09    515.    485.   0.849   0.349   0.544
              904.02      14.026    3.00    0.52    1.56    2.16    0.16    440.    410.   0.668   0.443   0.544
             1192.01      29.719    4.10    0.43    1.77    2.69    0.49    392.    362.   0.582   0.508   0.544
             1328.01      43.411    4.80    0.39    1.88    3.01    0.36    368.    338.   0.542   0.546   0.544
             1422.02      12.928    2.90    0.53    1.54    2.11    0.12    446.    416.   0.678   0.436   0.543
              865.01      74.226    6.00    0.34    2.06    3.52    0.47    336.    306.   0.487   0.602   0.541
             1403.01      12.550    2.00    1.57    3.14    2.51    0.12    474.    444.   0.778   0.376   0.541
             1527.01      45.617    4.90    0.39    1.90    3.05    0.67    367.    337.   0.536   0.546   0.541
              528.02      18.949    3.40    0.48    1.64    2.36    0.42    426.    396.   0.633   0.458   0.539
             1162.01      26.353    3.90    0.44    1.73    2.60    0.59    405.    375.   0.596   0.486   0.538
              351.02      74.226    6.00    0.34    2.06    3.52    0.71    339.    309.   0.487   0.594   0.538
              255.01      21.740    3.60    0.47    1.68    2.46    0.15    418.    388.   0.617   0.468   0.538
              993.01       3.414    1.40    1.24    1.74    1.56    0.15    549.    519.   0.892   0.323   0.537
              222.02       6.935    1.70    1.41    2.40    2.02    0.09    512.    482.   0.830   0.346   0.536
              884.02      10.888    2.70    0.55    1.49    2.01    0.14    466.    436.   0.699   0.409   0.535
              736.01       9.943    2.60    0.57    1.47    1.96    0.12    472.    442.   0.710   0.403   0.534
              564.02      47.887    5.00    0.38    1.92    3.10    0.51    370.    340.   0.531   0.537   0.534
             1486.01     171.467    8.50    0.28    2.37    4.49    0.80    286.    256.   0.410   0.696   0.534
             1506.01       7.405    2.30    0.61    1.40    1.79    0.23    492.    462.   0.746   0.382   0.534
              303.01      12.928    2.90    0.53    1.54    2.11    0.31    456.    426.   0.678   0.420   0.533
              773.01       5.951    2.10    0.64    1.35    1.68    0.23    507.    477.   0.773   0.367   0.533
              463.01      20.317    3.50    0.47    1.66    2.41    0.11    428.    398.   0.625   0.452   0.532
              373.01      20.317    3.50    0.47    1.66    2.41    0.53    430.    400.   0.625   0.449   0.530
              245.01       5.951    2.10    0.64    1.35    1.68    0.21    512.    482.   0.773   0.361   0.528
              920.01      10.408    1.90    1.52    2.88    2.34    0.15    499.    469.   0.794   0.350   0.527
              113.01     161.928    8.30    0.28    2.35    4.42    0.89    299.    269.   0.415   0.670   0.527
              351.01     171.467    8.50    0.28    2.37    4.49    0.97    296.    266.   0.410   0.676   0.526
             1329.01       9.049    2.50    0.58    1.45    1.90    0.20    487.    457.   0.721   0.384   0.526
              351.03      10.408    1.90    1.52    2.88    2.34    0.31    501.    471.   0.794   0.347   0.525
              571.02      12.550    2.00    1.57    3.14    2.51    0.09    491.    461.   0.778   0.354   0.525
              881.01       9.049    2.50    0.58    1.45    1.90    0.14    489.    459.   0.721   0.381   0.524
              722.01       8.544    1.80    1.46    2.64    2.18    0.26    515.    485.   0.812   0.337   0.523
             1279.01       1.416    1.10    1.06    1.17    1.13    0.12    614.    584.   0.970   0.280   0.521
              227.01      12.928    2.90    0.53    1.54    2.11    0.11    470.    440.   0.678   0.398   0.520
             1208.01     107.519    7.00    0.31    2.19    3.92    0.91    331.    301.   0.452   0.597   0.519
              750.01       9.943    2.60    0.57    1.47    1.96    0.14    488.    458.   0.710   0.380   0.519
               72.02       7.405    2.30    0.61    1.40    1.79    0.25    508.    478.   0.746   0.361   0.519
             1574.01      68.417    5.80    0.35    2.03    3.44    0.47    361.    331.   0.495   0.543   0.518
             1598.01      14.026    3.00    0.52    1.56    2.16    0.29    467.    437.   0.668   0.400   0.517
             1408.01       8.544    1.80    1.46    2.64    2.18    0.10    522.    492.   0.812   0.328   0.516
             1085.01       1.945    1.20    1.13    1.35    1.27    0.06    603.    573.   0.942   0.283   0.516
               99.01      39.189    4.60    0.40    1.85    2.92    1.69    207.    177.   0.552   0.480   0.515
              409.01       3.414    1.40    1.24    1.74    1.56    0.11    575.    545.   0.892   0.297   0.515
              157.04       6.655    2.20    0.62    1.37    1.74    0.26    521.    491.   0.759   0.347   0.513
              590.02       6.655    2.20    0.62    1.37    1.74    0.28    522.    492.   0.759   0.346   0.512
              393.01       1.945    1.20    1.13    1.35    1.27    0.15    608.    578.   0.942   0.279   0.512
              899.01       6.935    1.70    1.41    2.40    2.02    0.06    540.    510.   0.830   0.315   0.511
              790.01       3.414    1.40    1.24    1.74    1.56    0.08    581.    551.   0.892   0.291   0.510
             1480.01       9.049    2.50    0.58    1.45    1.90    0.14    505.    475.   0.721   0.360   0.509
              701.01       6.655    2.20    0.62    1.37    1.74    0.13    526.    496.   0.759   0.341   0.509
             1113.02      11.882    2.80    0.54    1.52    2.06    0.39    488.    458.   0.688   0.375   0.508
              446.01       7.405    2.30    0.61    1.40    1.79    0.12    520.    490.   0.746   0.346   0.508
              610.01      12.550    2.00    1.57    3.14    2.51    0.10    511.    481.   0.778   0.330   0.507
             1535.01       8.203    2.40    0.59    1.42    1.85    0.35    515.    485.   0.733   0.350   0.506
             1273.01      11.882    2.80    0.54    1.52    2.06    0.23    490.    460.   0.688   0.373   0.506
             1433.01       6.935    1.70    1.41    2.40    2.02    0.14    546.    516.   0.830   0.308   0.506
              241.01       6.935    1.70    1.41    2.40    2.02    0.11    546.    516.   0.830   0.308   0.506
              954.02       9.049    2.50    0.58    1.45    1.90    0.22    509.    479.   0.721   0.355   0.506
              974.01       4.392    1.50    1.30    1.95    1.71    0.29    572.    542.   0.870   0.294   0.506
               75.01      33.324    4.30    0.42    1.80    2.78    0.45    421.    391.   0.570   0.448   0.505
              481.03      14.026    3.00    0.52    1.56    2.16    0.20    480.    450.   0.668   0.382   0.505
              454.01       8.203    2.40    0.59    1.42    1.85    0.18    517.    487.   0.733   0.347   0.505
             1278.02       8.203    2.40    0.59    1.42    1.85    0.25    517.    487.   0.733   0.347   0.505
              740.01       7.405    2.30    0.61    1.40    1.79    0.12    527.    497.   0.746   0.338   0.502
              864.02       8.544    1.80    1.46    2.64    2.18    0.14    539.    509.   0.812   0.310   0.502
              886.01      12.550    2.00    1.57    3.14    2.51    0.06    518.    488.   0.778   0.322   0.501
              386.02      12.928    2.90    0.53    1.54    2.11    0.37    491.    461.   0.678   0.369   0.500
             1581.01       7.405    2.30    0.61    1.40    1.79    0.19    529.    499.   0.746   0.335   0.500
             1261.01      83.463    6.30    0.33    2.10    3.64    0.52    365.    335.   0.476   0.525   0.500
              652.01      14.026    3.00    0.52    1.56    2.16    0.11    489.    459.   0.668   0.370   0.497
              847.01      50.221    5.10    0.38    1.93    3.14    0.37    402.    372.   0.526   0.469   0.497
              657.02      10.408    1.90    1.52    2.88    2.34    0.12    534.    504.   0.794   0.310   0.496
              952.02       7.405    2.30    0.61    1.40    1.79    0.07    534.    504.   0.746   0.330   0.496
              211.01     229.736    9.60    0.26    2.49    4.89    1.05    303.    273.   0.385   0.638   0.496
              694.01       6.935    1.70    1.41    2.40    2.02    0.13    560.    530.   0.830   0.294   0.494
             1378.01       2.605    1.30    1.19    1.54    1.42    0.13    620.    590.   0.916   0.263   0.491
             1159.01      55.087    5.30    0.37    1.96    3.23    0.30    402.    372.   0.517   0.465   0.490
              711.01      10.888    2.70    0.55    1.49    2.01    0.25    516.    486.   0.699   0.342   0.489
              250.02      21.740    3.60    0.47    1.68    2.46    0.11    468.    438.   0.617   0.387   0.489
              574.01       8.203    2.40    0.59    1.42    1.85    0.14    537.    507.   0.733   0.324   0.488
              877.02       7.405    2.30    0.61    1.40    1.79    0.09    546.    516.   0.746   0.317   0.486
              723.02      12.928    2.90    0.53    1.54    2.11    0.18    508.    478.   0.678   0.347   0.485
             1160.01       8.544    1.80    1.46    2.64    2.18    0.10    559.    529.   0.812   0.290   0.485
              788.01      16.380    3.20    0.50    1.60    2.26    0.17    493.    463.   0.650   0.360   0.484
              484.01      12.550    2.00    1.57    3.14    2.51    0.12    539.    509.   0.778   0.300   0.483
              430.01      10.888    2.70    0.55    1.49    2.01    0.09    523.    493.   0.699   0.334   0.483
             1061.01       7.405    2.30    0.61    1.40    1.79    0.24    550.    520.   0.746   0.313   0.483
              806.01     196.722    9.00    0.27    2.43    4.68    0.53    326.    296.   0.398   0.581   0.481
              577.01       9.943    2.60    0.57    1.47    1.96    0.23    532.    502.   0.710   0.326   0.481
              375.01     186.376    8.80    0.27    2.41    4.60    0.73    330.    300.   0.403   0.573   0.480
              248.02       9.049    2.50    0.58    1.45    1.90    0.08    539.    509.   0.721   0.320   0.480
             1475.02       6.655    2.20    0.62    1.37    1.74    0.07    562.    532.   0.759   0.302   0.479
              569.01       5.951    2.10    0.64    1.35    1.68    0.14    570.    540.   0.773   0.297   0.479
             1275.01      17.637    3.30    0.49    1.62    2.31    0.27    496.    466.   0.641   0.355   0.477
             1590.01      11.882    2.80    0.54    1.52    2.06    0.16    524.    494.   0.688   0.331   0.477
              977.01       0.482    0.80    0.94    0.75    0.78    0.01    658.    628.   0.951   0.239   0.477
             1238.01       5.951    2.10    0.64    1.35    1.68    0.18    573.    543.   0.773   0.294   0.477
             1486.02       8.203    2.40    0.59    1.42    1.85    0.19    551.    521.   0.733   0.309   0.476
             1014.01      10.888    2.70    0.55    1.49    2.01    0.12    532.    502.   0.699   0.324   0.475
              937.01       7.405    2.30    0.61    1.40    1.79    0.15    560.    530.   0.746   0.302   0.475
              945.02       9.943    2.60    0.57    1.47    1.96    0.24    540.    510.   0.710   0.317   0.474
              271.01      12.550    2.00    1.57    3.14    2.51    0.27    550.    520.   0.778   0.289   0.474
             1476.01      39.189    4.60    0.40    1.85    2.92    0.29    443.    413.   0.552   0.407   0.474
              431.02      20.317    3.50    0.47    1.66    2.41    0.25    490.    460.   0.625   0.359   0.474
             1010.01      10.888    2.70    0.55    1.49    2.01    0.48    536.    506.   0.699   0.319   0.472
             1518.01       6.655    2.20    0.62    1.37    1.74    0.18    571.    541.   0.759   0.294   0.472
              567.03       6.655    2.20    0.62    1.37    1.74    0.19    573.    543.   0.759   0.292   0.471
              401.02      93.338    6.60    0.32    2.14    3.76    0.59    387.    357.   0.465   0.474   0.470
              530.01       2.605    1.30    1.19    1.54    1.42    0.10    649.    619.   0.916   0.241   0.470
              829.03      10.888    2.70    0.55    1.49    2.01    0.23    540.    510.   0.699   0.315   0.469
              589.01       1.945    1.20    1.13    1.35    1.27    0.13    667.    637.   0.942   0.233   0.469
              571.01       6.935    1.70    1.41    2.40    2.02    0.06    593.    563.   0.830   0.265   0.469
              273.01       1.416    1.10    1.06    1.17    1.13    0.09    685.    655.   0.970   0.226   0.468
             1521.01       8.203    2.40    0.59    1.42    1.85    0.17    562.    532.   0.733   0.298   0.468
             1112.01       6.655    2.20    0.62    1.37    1.74    0.23    577.    547.   0.759   0.288   0.468
              921.02      10.888    2.70    0.55    1.49    2.01    0.13    542.    512.   0.699   0.313   0.467
              165.01      10.408    1.90    1.52    2.88    2.34    0.10    571.    541.   0.794   0.274   0.467
             1595.01      12.928    2.90    0.53    1.54    2.11    0.23    532.    502.   0.678   0.320   0.466
              912.01       9.943    2.60    0.57    1.47    1.96    0.08    551.    521.   0.710   0.305   0.466
              734.01       8.203    2.40    0.59    1.42    1.85    0.17    565.    535.   0.733   0.295   0.465
              986.01       2.605    1.30    1.19    1.54    1.42    0.08    656.    626.   0.916   0.236   0.465
              752.02      18.949    3.40    0.48    1.64    2.36    0.29    506.    476.   0.633   0.341   0.464
              387.01       9.049    2.50    0.58    1.45    1.90    0.10    564.    534.   0.721   0.294   0.461
              624.01       5.951    2.10    0.64    1.35    1.68    0.13    595.    565.   0.773   0.274   0.460
             1404.01       4.392    1.50    1.30    1.95    1.71    0.06    633.    603.   0.870   0.243   0.459
              733.02      10.408    1.90    1.52    2.88    2.34    0.09    581.    551.   0.794   0.265   0.459
             1609.01       7.405    2.30    0.61    1.40    1.79    0.24    581.    551.   0.746   0.282   0.459
             1258.01      31.492    4.20    0.43    1.79    2.74    0.21    476.    446.   0.576   0.365   0.459
             1307.01      14.026    3.00    0.52    1.56    2.16    0.25    535.    505.   0.668   0.315   0.459
              935.02      16.380    3.20    0.50    1.60    2.26    0.25    526.    496.   0.650   0.321   0.457
              542.01      10.888    2.70    0.55    1.49    2.01    0.24    556.    526.   0.699   0.299   0.457
             1266.01      12.550    2.00    1.57    3.14    2.51    0.09    573.    543.   0.778   0.268   0.456
              718.02       8.544    1.80    1.46    2.64    2.18    0.16    597.    567.   0.812   0.257   0.456
              119.01      26.353    3.90    0.44    1.73    2.60    0.26    492.    462.   0.596   0.349   0.456
             1360.02       7.405    2.30    0.61    1.40    1.79    0.11    585.    555.   0.746   0.279   0.456
              226.01       5.559    1.60    1.36    2.17    1.86    0.08    625.    595.   0.849   0.244   0.455
              806.03      15.176    3.10    0.51    1.58    2.21    0.18    534.    504.   0.659   0.314   0.455
              294.01       6.655    2.20    0.62    1.37    1.74    0.21    595.    565.   0.759   0.272   0.454
             1569.01       9.049    2.50    0.58    1.45    1.90    0.10    573.    543.   0.721   0.286   0.454
             1203.01       9.049    2.50    0.58    1.45    1.90    0.20    574.    544.   0.721   0.285   0.453
              172.01       5.559    1.60    1.36    2.17    1.86    0.11    628.    598.   0.849   0.242   0.453
             1145.01      12.550    2.00    1.57    3.14    2.51    0.20    579.    549.   0.778   0.263   0.452
              471.01      12.550    2.00    1.57    3.14    2.51    0.15    581.    551.   0.778   0.261   0.451
              520.03      11.882    2.80    0.54    1.52    2.06    0.17    558.    528.   0.688   0.295   0.450
             1311.01      18.949    3.40    0.48    1.64    2.36    0.39    524.    494.   0.633   0.320   0.450
              547.01      20.317    3.50    0.47    1.66    2.41    0.16    519.    489.   0.625   0.324   0.450
              415.01     135.203    7.70    0.30    2.28    4.19    0.61    382.    352.   0.431   0.470   0.450
              191.04       4.392    1.50    1.30    1.95    1.71    0.14    647.    617.   0.870   0.233   0.450
              448.01       7.405    2.30    0.61    1.40    1.79    0.08    594.    564.   0.746   0.271   0.449
              501.01       5.951    2.10    0.64    1.35    1.68    0.17    610.    580.   0.773   0.261   0.449
             1412.01       5.951    2.10    0.64    1.35    1.68    0.23    610.    580.   0.773   0.261   0.449
             1585.01       6.655    2.20    0.62    1.37    1.74    0.14    603.    573.   0.759   0.265   0.449
             1268.01     176.356    8.60    0.28    2.38    4.53    0.67    366.    336.   0.407   0.492   0.448
             1210.01       1.945    1.20    1.13    1.35    1.27    0.12    703.    673.   0.942   0.210   0.445
              433.02     512.137   13.40    0.21    2.85    6.18    0.94    279.    249.   0.323   0.612   0.445
              250.01      21.740    3.60    0.47    1.68    2.46    0.09    521.    491.   0.617   0.320   0.445
             1489.01       8.203    2.40    0.59    1.42    1.85    0.12    594.    564.   0.733   0.269   0.444
              408.03       9.943    2.60    0.57    1.47    1.96    0.20    580.    550.   0.710   0.278   0.444
              622.01     212.855    9.30    0.26    2.46    4.79    0.57    357.    327.   0.391   0.503   0.444
              899.02       2.605    1.30    1.19    1.54    1.42    0.03    688.    658.   0.916   0.215   0.444
              249.01      15.176    3.10    0.51    1.58    2.21    0.07    549.    519.   0.659   0.299   0.444
             1029.01       9.049    2.50    0.58    1.45    1.90    0.20    588.    558.   0.721   0.273   0.443
              640.01      12.928    2.90    0.53    1.54    2.11    0.19    563.    533.   0.678   0.288   0.442
              476.01       8.203    2.40    0.59    1.42    1.85    0.13    597.    567.   0.733   0.267   0.442
              518.01       8.203    2.40    0.59    1.42    1.85    0.11    597.    567.   0.733   0.267   0.442
              372.01     171.467    8.50    0.28    2.37    4.49    0.50    374.    344.   0.410   0.477   0.442
              952.01       7.405    2.30    0.61    1.40    1.79    0.05    605.    575.   0.746   0.262   0.442
              759.01      21.740    3.60    0.47    1.68    2.46    0.20    525.    495.   0.617   0.316   0.441
             1522.01       9.049    2.50    0.58    1.45    1.90    0.21    592.    562.   0.721   0.269   0.440
             1430.01       7.405    2.30    0.61    1.40    1.79    0.08    607.    577.   0.746   0.260   0.440
              118.01       8.544    1.80    1.46    2.64    2.18    0.17    620.    590.   0.812   0.239   0.440
              479.01      16.380    3.20    0.50    1.60    2.26    0.21    548.    518.   0.650   0.298   0.440
              416.01      12.928    2.90    0.53    1.54    2.11    0.13    566.    536.   0.678   0.286   0.440
              592.01      10.888    2.70    0.55    1.49    2.01    0.23    580.    550.   0.699   0.276   0.439
              522.01      10.408    1.90    1.52    2.88    2.34    0.11    610.    580.   0.794   0.242   0.439
              924.01      15.176    3.10    0.51    1.58    2.21    0.23    556.    526.   0.659   0.292   0.439
              901.01      35.218    4.40    0.41    1.82    2.83    0.09    493.    463.   0.564   0.341   0.438
              709.01       6.655    2.20    0.62    1.37    1.74    0.15    618.    588.   0.759   0.253   0.438
             1520.01       5.951    2.10    0.64    1.35    1.68    0.14    627.    597.   0.773   0.248   0.438
              666.01      12.550    2.00    1.57    3.14    2.51    0.16    600.    570.   0.778   0.246   0.437
              633.01      57.618    5.40    0.37    1.98    3.27    0.61    458.    428.   0.512   0.373   0.437
              298.01       6.935    1.70    1.41    2.40    2.02    0.14    640.    610.   0.830   0.229   0.436
             1218.01       6.655    2.20    0.62    1.37    1.74    0.19    623.    593.   0.759   0.249   0.435
              679.01       8.544    1.80    1.46    2.64    2.18    0.20    628.    598.   0.812   0.233   0.435
              566.01       7.405    2.30    0.61    1.40    1.79    0.17    616.    586.   0.746   0.253   0.434
              638.02      29.719    4.10    0.43    1.77    2.69    0.33    512.    482.   0.582   0.323   0.434
             1301.01      10.408    1.90    1.52    2.88    2.34    0.10    618.    588.   0.794   0.236   0.433
              898.01      14.026    3.00    0.52    1.56    2.16    0.07    570.    540.   0.668   0.280   0.433
              612.02      21.740    3.60    0.47    1.68    2.46    0.26    537.    507.   0.617   0.303   0.433
             1366.01       8.203    2.40    0.59    1.42    1.85    0.14    612.    582.   0.733   0.254   0.432
              503.01       9.049    2.50    0.58    1.45    1.90    0.07    605.    575.   0.721   0.258   0.432
              853.02       5.951    2.10    0.64    1.35    1.68    0.11    637.    607.   0.773   0.241   0.431
             1477.01     218.398    9.40    0.26    2.47    4.82    1.04    225.    195.   0.389   0.478   0.431
              276.01       9.943    2.60    0.57    1.47    1.96    0.24    599.    569.   0.710   0.262   0.431
              513.01      10.888    2.70    0.55    1.49    2.01    0.22    593.    563.   0.699   0.265   0.430
              869.02      33.324    4.30    0.42    1.80    2.78    0.21    508.    478.   0.570   0.324   0.430
              584.01       5.559    1.60    1.36    2.17    1.86    0.09    663.    633.   0.849   0.218   0.430
              704.01       6.935    1.70    1.41    2.40    2.02    0.14    649.    619.   0.830   0.223   0.430
              337.01       5.559    1.60    1.36    2.17    1.86    0.15    666.    636.   0.849   0.216   0.428
              641.01      16.380    3.20    0.50    1.60    2.26    0.10    565.    535.   0.650   0.282   0.428
             1242.01      83.463    6.30    0.33    2.10    3.64    0.44    442.    412.   0.476   0.385   0.428
              936.01      20.317    3.50    0.47    1.66    2.41    0.07    549.    519.   0.625   0.293   0.428
              222.01       5.951    2.10    0.64    1.35    1.68    0.06    643.    613.   0.773   0.236   0.427
              841.02      45.617    4.90    0.39    1.90    3.05    0.19    488.    458.   0.536   0.340   0.427
              775.02       9.049    2.50    0.58    1.45    1.90    0.07    612.    582.   0.721   0.253   0.427
              942.01       9.049    2.50    0.58    1.45    1.90    0.10    612.    582.   0.721   0.253   0.427
              693.01       8.544    1.80    1.46    2.64    2.18    0.19    641.    611.   0.812   0.224   0.426
             1170.01       3.414    1.40    1.24    1.74    1.56    0.07    700.    670.   0.892   0.203   0.426
              875.01       6.655    2.20    0.62    1.37    1.74    0.04    637.    607.   0.759   0.239   0.426
             1108.01       3.414    1.40    1.24    1.74    1.56    0.09    702.    672.   0.892   0.202   0.425
              842.01      11.882    2.80    0.54    1.52    2.06    0.10    595.    565.   0.688   0.262   0.424
             1303.01       9.943    2.60    0.57    1.47    1.96    0.21    609.    579.   0.710   0.253   0.424
              271.02       8.544    1.80    1.46    2.64    2.18    0.19    645.    615.   0.812   0.221   0.424
              523.02      10.888    2.70    0.55    1.49    2.01    0.22    603.    573.   0.699   0.257   0.423
              541.01      10.408    1.90    1.52    2.88    2.34    0.11    633.    603.   0.794   0.226   0.423
              156.03      11.882    2.80    0.54    1.52    2.06    0.09    597.    567.   0.688   0.260   0.423
              785.01       5.951    2.10    0.64    1.35    1.68    0.10    650.    620.   0.773   0.231   0.423
              952.04       1.416    1.10    1.06    1.17    1.13    0.03    760.    730.   0.970   0.184   0.422
              719.01      10.408    1.90    1.52    2.88    2.34    0.07    635.    605.   0.794   0.224   0.422
              270.01       0.709    0.90    0.97    0.87    0.89    0.10    765.    735.   0.977   0.182   0.421
              945.01      12.550    2.00    1.57    3.14    2.51    0.17    625.    595.   0.778   0.227   0.421
             1587.01     122.885    7.40    0.30    2.24    4.08    0.27    423.    393.   0.439   0.401   0.420
             1024.01       6.935    1.70    1.41    2.40    2.02    0.05    665.    635.   0.830   0.212   0.420
              934.03       8.203    2.40    0.59    1.42    1.85    0.14    631.    601.   0.733   0.240   0.419
              275.01       1.945    1.20    1.13    1.35    1.27    0.12    747.    717.   0.942   0.186   0.419
              588.01       6.655    2.20    0.62    1.37    1.74    0.09    649.    619.   0.759   0.230   0.418
             1517.01      17.637    3.30    0.49    1.62    2.31    0.23    574.    544.   0.641   0.272   0.418
              837.01       8.544    1.80    1.46    2.64    2.18    0.07    655.    625.   0.812   0.215   0.418
              567.02       7.405    2.30    0.61    1.40    1.79    0.15    642.    612.   0.746   0.234   0.417
              440.01      11.882    2.80    0.54    1.52    2.06    0.12    606.    576.   0.688   0.253   0.417
              586.01       5.951    2.10    0.64    1.35    1.68    0.12    660.    630.   0.773   0.225   0.417
             1201.01       3.414    1.40    1.24    1.74    1.56    0.03    716.    686.   0.892   0.195   0.417
              884.01      14.026    3.00    0.52    1.56    2.16    0.08    594.    564.   0.668   0.259   0.416
              392.01      10.408    1.90    1.52    2.88    2.34    0.21    644.    614.   0.794   0.218   0.416
              477.01       9.943    2.60    0.57    1.47    1.96    0.12    623.    593.   0.710   0.243   0.415
              289.01      12.550    2.00    1.57    3.14    2.51    0.17    634.    604.   0.778   0.221   0.415
              468.01      20.317    3.50    0.47    1.66    2.41    0.15    568.    538.   0.625   0.275   0.414
              598.01       6.935    1.70    1.41    2.40    2.02    0.08    674.    644.   0.830   0.207   0.414
              921.01       7.405    2.30    0.61    1.40    1.79    0.09    648.    618.   0.746   0.230   0.414
             1426.01      17.637    3.30    0.49    1.62    2.31    0.23    581.    551.   0.641   0.266   0.413
             1308.01      12.550    2.00    1.57    3.14    2.51    0.16    637.    607.   0.778   0.219   0.413
             1586.01       6.935    1.70    1.41    2.40    2.02    0.07    677.    647.   0.830   0.205   0.413
              473.01       6.655    2.20    0.62    1.37    1.74    0.10    659.    629.   0.759   0.224   0.412
              500.02      11.882    2.80    0.54    1.52    2.06    0.08    614.    584.   0.688   0.247   0.412
              176.01       6.655    2.20    0.62    1.37    1.74    0.20    660.    630.   0.759   0.223   0.411
              443.01       6.655    2.20    0.62    1.37    1.74    0.13    661.    631.   0.759   0.222   0.411
              263.01       4.392    1.50    1.30    1.95    1.71    0.15    712.    682.   0.870   0.193   0.410
              377.02      80.313    6.20    0.34    2.09    3.60    0.23    468.    438.   0.479   0.350   0.410
              474.02       7.405    2.30    0.61    1.40    1.79    0.19    655.    625.   0.746   0.225   0.409
              475.02       9.943    2.60    0.57    1.47    1.96    0.12    632.    602.   0.710   0.236   0.409
              319.01      33.324    4.30    0.42    1.80    2.78    0.25    538.    508.   0.570   0.293   0.408
              999.01      12.928    2.90    0.53    1.54    2.11    0.12    613.    583.   0.678   0.246   0.408
              564.01       8.203    2.40    0.59    1.42    1.85    0.15    649.    619.   0.733   0.227   0.408
              296.01       8.203    2.40    0.59    1.42    1.85    0.19    649.    619.   0.733   0.227   0.408
              707.02       9.943    2.60    0.57    1.47    1.96    0.24    634.    604.   0.710   0.235   0.408
              248.01      12.928    2.90    0.53    1.54    2.11    0.06    614.    584.   0.678   0.245   0.408
              103.01       7.405    2.30    0.61    1.40    1.79    0.12    658.    628.   0.746   0.223   0.408
               92.01      35.218    4.40    0.41    1.82    2.83    0.33    535.    505.   0.564   0.294   0.407
              352.01       8.203    2.40    0.59    1.42    1.85    0.18    651.    621.   0.733   0.226   0.407
              435.01      14.026    3.00    0.52    1.56    2.16    0.15    609.    579.   0.668   0.248   0.407
              112.01      23.220    3.70    0.46    1.70    2.51    0.28    569.    539.   0.610   0.271   0.407
              291.02       1.000    1.00    1.00    1.00    1.00    0.08    810.    780.   1.000   0.165   0.407
              880.02      68.417    5.80    0.35    2.03    3.44    0.27    486.    456.   0.495   0.332   0.405
              152.02       9.049    2.50    0.58    1.45    1.90    0.18    646.    616.   0.721   0.228   0.405
             1528.01       0.482    0.80    0.94    0.75    0.78    0.05    776.    746.   0.951   0.172   0.405
             1507.01       7.405    2.30    0.61    1.40    1.79    0.15    664.    634.   0.746   0.219   0.404
              689.01      12.550    2.00    1.57    3.14    2.51    0.12    652.    622.   0.778   0.210   0.404
              864.03       8.544    1.80    1.46    2.64    2.18    0.09    678.    648.   0.812   0.201   0.404
             1512.01       5.951    2.10    0.64    1.35    1.68    0.08    682.    652.   0.773   0.211   0.404
              736.02      12.550    2.00    1.57    3.14    2.51    0.06    653.    623.   0.778   0.209   0.403
               44.01     126.915    7.50    0.30    2.26    4.12    0.30    442.    412.   0.436   0.372   0.403
              253.01      12.928    2.90    0.53    1.54    2.11    0.05    622.    592.   0.678   0.239   0.403
              111.02       7.405    2.30    0.61    1.40    1.79    0.17    668.    638.   0.746   0.216   0.402
             1086.01       9.049    2.50    0.58    1.45    1.90    0.18    653.    623.   0.721   0.223   0.401
             1364.01      12.928    2.90    0.53    1.54    2.11    0.15    626.    596.   0.678   0.236   0.400
              781.01      33.324    4.30    0.42    1.80    2.78    0.08    551.    521.   0.570   0.280   0.400
              156.01      10.408    1.90    1.52    2.88    2.34    0.07    672.    642.   0.794   0.201   0.400
              152.01      45.617    4.90    0.39    1.90    3.05    0.28    527.    497.   0.536   0.297   0.399
               70.01       7.405    2.30    0.61    1.40    1.79    0.09    673.    643.   0.746   0.213   0.399
              700.01      15.176    3.10    0.51    1.58    2.21    0.20    618.    588.   0.659   0.239   0.397
             1298.01      23.220    3.70    0.46    1.70    2.51    0.08    584.    554.   0.610   0.258   0.397
             1111.01       5.559    1.60    1.36    2.17    1.86    0.09    719.    689.   0.849   0.186   0.397
              550.01       8.544    1.80    1.46    2.64    2.18    0.11    690.    660.   0.812   0.194   0.397
              464.01     111.248    7.10    0.31    2.21    3.96    0.29    460.    430.   0.448   0.351   0.397
             1141.01      12.550    2.00    1.57    3.14    2.51    0.05    664.    634.   0.778   0.202   0.397
              632.01       1.945    1.20    1.13    1.35    1.27    0.07    791.    761.   0.942   0.166   0.395
             1022.01      11.882    2.80    0.54    1.52    2.06    0.14    642.    612.   0.688   0.226   0.395
              250.03       2.605    1.30    1.19    1.54    1.42    0.04    774.    744.   0.916   0.170   0.394
             1599.01       9.049    2.50    0.58    1.45    1.90    0.15    666.    636.   0.721   0.215   0.394
              478.01      37.172    4.50    0.41    1.84    2.88    0.08    552.    522.   0.558   0.277   0.393
             1516.01       7.405    2.30    0.61    1.40    1.79    0.15    686.    656.   0.746   0.205   0.391
             1081.01       3.414    1.40    1.24    1.74    1.56    0.09    762.    732.   0.892   0.172   0.391
              655.01       5.951    2.10    0.64    1.35    1.68    0.18    704.    674.   0.773   0.198   0.391
              580.01       4.392    1.50    1.30    1.95    1.71    0.07    746.    716.   0.870   0.176   0.391
              398.01     176.356    8.60    0.28    2.38    4.53    0.27    433.    403.   0.407   0.375   0.391
              413.01      11.882    2.80    0.54    1.52    2.06    0.12    649.    619.   0.688   0.222   0.391
              282.01      11.882    2.80    0.54    1.52    2.06    0.18    650.    620.   0.688   0.221   0.390
              438.01       6.655    2.20    0.62    1.37    1.74    0.06    698.    668.   0.759   0.200   0.390
             1078.01      10.408    1.90    1.52    2.88    2.34    0.03    690.    660.   0.794   0.191   0.389
             1220.01       1.416    1.10    1.06    1.17    1.13    0.07    827.    797.   0.970   0.155   0.387
             1444.01      14.026    3.00    0.52    1.56    2.16    0.26    641.    611.   0.668   0.224   0.387
              177.01      10.408    1.90    1.52    2.88    2.34    0.15    694.    664.   0.794   0.189   0.387
              575.01       9.943    2.60    0.57    1.47    1.96    0.17    670.    640.   0.710   0.211   0.387
              353.01     157.278    8.20    0.29    2.34    4.38    0.59    447.    417.   0.417   0.358   0.387
               41.01       3.414    1.40    1.24    1.74    1.56    0.11    771.    741.   0.892   0.168   0.387
              533.01       9.943    2.60    0.57    1.47    1.96    0.13    671.    641.   0.710   0.210   0.386
             1410.01       5.559    1.60    1.36    2.17    1.86    0.13    739.    709.   0.849   0.176   0.386
              868.01     433.314   12.50    0.22    2.77    5.89    0.63    223.    193.   0.336   0.444   0.386
             1236.01      11.882    2.80    0.54    1.52    2.06    0.22    657.    627.   0.688   0.217   0.386
             1601.01       4.392    1.50    1.30    1.95    1.71    0.09    756.    726.   0.870   0.171   0.386
             1584.01      10.408    1.90    1.52    2.88    2.34    0.05    697.    667.   0.794   0.187   0.385
             1494.01       8.203    2.40    0.59    1.42    1.85    0.07    689.    659.   0.733   0.202   0.385
              811.01      33.324    4.30    0.42    1.80    2.78    0.14    574.    544.   0.570   0.260   0.385
              701.02       4.392    1.50    1.30    1.95    1.71    0.06    758.    728.   0.870   0.170   0.385
              877.01       9.049    2.50    0.58    1.45    1.90    0.06    682.    652.   0.721   0.205   0.385
             1264.01      10.888    2.70    0.55    1.49    2.01    0.11    667.    637.   0.699   0.212   0.384
             1310.01      12.550    2.00    1.57    3.14    2.51    0.14    687.    657.   0.778   0.189   0.384
             1413.01       4.392    1.50    1.30    1.95    1.71    0.11    760.    730.   0.870   0.169   0.384
              551.01       5.951    2.10    0.64    1.35    1.68    0.10    718.    688.   0.773   0.190   0.384
              274.01       1.416    1.10    1.06    1.17    1.13    0.12    835.    805.   0.970   0.152   0.384
             1529.01       6.935    1.70    1.41    2.40    2.02    0.14    729.    699.   0.830   0.177   0.383
              747.01      11.882    2.80    0.54    1.52    2.06    0.06    663.    633.   0.688   0.213   0.383
              315.01      43.411    4.80    0.39    1.88    3.01    0.21    556.    526.   0.542   0.270   0.382
             1379.01       0.482    0.80    0.94    0.75    0.78    0.06    820.    790.   0.951   0.154   0.382
              898.02       8.203    2.40    0.59    1.42    1.85    0.05    694.    664.   0.733   0.199   0.382
              500.01      10.888    2.70    0.55    1.49    2.01    0.06    672.    642.   0.699   0.208   0.382
              733.01       6.655    2.20    0.62    1.37    1.74    0.06    713.    683.   0.759   0.192   0.381
              344.01      28.006    4.00    0.44    1.75    2.65    0.23    594.    564.   0.589   0.247   0.381
              707.03       9.049    2.50    0.58    1.45    1.90    0.20    688.    658.   0.721   0.202   0.381
             1005.01      89.974    6.50    0.33    2.13    3.72    0.21    499.    469.   0.468   0.310   0.381
              829.01       9.943    2.60    0.57    1.47    1.96    0.14    681.    651.   0.710   0.204   0.381
              757.01      43.411    4.80    0.39    1.88    3.01    0.12    560.    530.   0.542   0.267   0.380
              764.01      62.882    5.60    0.36    2.01    3.35    0.24    530.    500.   0.503   0.286   0.380
              142.01       9.049    2.50    0.58    1.45    1.90    0.10    691.    661.   0.721   0.200   0.380
              571.03       8.544    1.80    1.46    2.64    2.18    0.04    722.    692.   0.812   0.177   0.380
              867.01      18.949    3.40    0.48    1.64    2.36    0.12    630.    600.   0.633   0.227   0.379
              548.01       9.943    2.60    0.57    1.47    1.96    0.15    684.    654.   0.710   0.203   0.379
              157.03      31.492    4.20    0.43    1.79    2.74    0.20    588.    558.   0.576   0.249   0.379
              825.01       8.203    2.40    0.59    1.42    1.85    0.07    701.    671.   0.733   0.196   0.379
              818.01      21.740    3.60    0.47    1.68    2.46    0.07    621.    591.   0.617   0.231   0.378
              884.03       1.945    1.20    1.13    1.35    1.27    0.04    827.    797.   0.942   0.151   0.378
              907.02      18.949    3.40    0.48    1.64    2.36    0.19    634.    604.   0.633   0.224   0.377
              834.02      10.408    1.90    1.52    2.88    2.34    0.11    713.    683.   0.794   0.179   0.377
             1215.02       5.951    2.10    0.64    1.35    1.68    0.21    731.    701.   0.773   0.184   0.377
             1426.02     135.203    7.70    0.30    2.28    4.19    0.36    473.    443.   0.431   0.329   0.377
             1002.01       1.000    1.00    1.00    1.00    1.00    0.04    872.    842.   1.000   0.142   0.377
              896.01      26.353    3.90    0.44    1.73    2.60    0.12    608.    578.   0.596   0.237   0.376
             1244.01       4.392    1.50    1.30    1.95    1.71    0.10    776.    746.   0.870   0.162   0.376
             1534.01       5.559    1.60    1.36    2.17    1.86    0.15    760.    730.   0.849   0.166   0.375
             1288.01     241.410    9.80    0.26    2.51    4.96    0.49    430.    400.   0.381   0.369   0.375
              949.01       9.049    2.50    0.58    1.45    1.90    0.11    700.    670.   0.721   0.195   0.375
             1422.01      15.176    3.10    0.51    1.58    2.21    0.05    657.    627.   0.659   0.213   0.375
             1463.01     820.186   16.30    0.19    3.09    7.10    0.80    341.    311.   0.291   0.480   0.374
              914.01       1.945    1.20    1.13    1.35    1.27    0.05    835.    805.   0.942   0.148   0.374
             1588.01       4.392    1.50    1.30    1.95    1.71    0.04    781.    751.   0.870   0.160   0.373
              872.01     122.885    7.40    0.30    2.24    4.08    0.20    486.    456.   0.439   0.317   0.373
              992.01       5.559    1.60    1.36    2.17    1.86    0.09    765.    735.   0.849   0.164   0.373
             1573.01      24.758    3.80    0.45    1.71    2.55    0.17    619.    589.   0.603   0.230   0.373
             1198.01      12.550    2.00    1.57    3.14    2.51    0.13    709.    679.   0.778   0.178   0.372
              892.01      11.882    2.80    0.54    1.52    2.06    0.09    684.    654.   0.688   0.200   0.371
              708.01       6.655    2.20    0.62    1.37    1.74    0.14    733.    703.   0.759   0.181   0.371
              837.02       3.414    1.40    1.24    1.74    1.56    0.05    804.    774.   0.892   0.154   0.371
              427.01      39.189    4.60    0.40    1.85    2.92    0.17    584.    554.   0.552   0.249   0.371
              568.01       1.000    1.00    1.00    1.00    1.00    0.04    886.    856.   1.000   0.137   0.370
              910.01      10.408    1.90    1.52    2.88    2.34    0.06    726.    696.   0.794   0.172   0.370
              581.01       5.951    2.10    0.64    1.35    1.68    0.07    744.    714.   0.773   0.177   0.370
              841.01      28.006    4.00    0.44    1.75    2.65    0.12    613.    583.   0.589   0.233   0.370
             1375.01    1027.230   17.90    0.18    3.21    7.58    0.96    330.    300.   0.277   0.494   0.370
              557.01      15.176    3.10    0.51    1.58    2.21    0.12    666.    636.   0.659   0.207   0.370
             1307.02      11.882    2.80    0.54    1.52    2.06    0.15    687.    657.   0.688   0.198   0.370
              802.01     118.931    7.30    0.31    2.23    4.04    0.14    494.    464.   0.442   0.309   0.369
             1207.01      12.928    2.90    0.53    1.54    2.11    0.11    680.    650.   0.678   0.201   0.369
              156.02       5.559    1.60    1.36    2.17    1.86    0.05    773.    743.   0.849   0.160   0.369
             1278.01       5.559    1.60    1.36    2.17    1.86    0.11    774.    744.   0.849   0.160   0.369
             1257.01     278.478   10.40    0.25    2.57    5.18    0.39    428.    398.   0.369   0.368   0.368
              614.01      28.006    4.00    0.44    1.75    2.65    0.11    617.    587.   0.589   0.230   0.368
              251.01      12.928    2.90    0.53    1.54    2.11    0.04    683.    653.   0.678   0.200   0.368
              691.01      12.928    2.90    0.53    1.54    2.11    0.20    683.    653.   0.678   0.200   0.368
              691.02       2.605    1.30    1.19    1.54    1.42    0.13    829.    799.   0.916   0.147   0.368
             1113.01       9.943    2.60    0.57    1.47    1.96    0.18    706.    676.   0.710   0.190   0.367
             1282.01      12.550    2.00    1.57    3.14    2.51    0.20    718.    688.   0.778   0.173   0.367
              332.01       1.416    1.10    1.06    1.17    1.13    0.06    871.    841.   0.970   0.139   0.367
              386.01      18.949    3.40    0.48    1.64    2.36    0.20    653.    623.   0.633   0.212   0.366
              695.01      15.176    3.10    0.51    1.58    2.21    0.20    673.    643.   0.659   0.203   0.366
              934.02      12.550    2.00    1.57    3.14    2.51    0.11    721.    691.   0.778   0.172   0.366
              277.01       5.951    2.10    0.64    1.35    1.68    0.12    753.    723.   0.773   0.173   0.366
              492.01      23.220    3.70    0.46    1.70    2.51    0.19    637.    607.   0.610   0.219   0.366
              307.01       6.935    1.70    1.41    2.40    2.02    0.15    766.    736.   0.830   0.160   0.365
              746.01      15.176    3.10    0.51    1.58    2.21    0.08    678.    648.   0.659   0.200   0.363
             1164.01       1.945    1.20    1.13    1.35    1.27    0.03    859.    829.   0.942   0.140   0.363
             1270.01      12.550    2.00    1.57    3.14    2.51    0.06    728.    698.   0.778   0.169   0.362
              905.01      12.550    2.00    1.57    3.14    2.51    0.06    728.    698.   0.778   0.169   0.362
             1245.01       4.392    1.50    1.30    1.95    1.71    0.12    804.    774.   0.870   0.151   0.362
              157.02      20.317    3.50    0.47    1.66    2.41    0.16    655.    625.   0.625   0.210   0.362
             1553.01     111.248    7.10    0.31    2.21    3.96    0.28    511.    481.   0.448   0.292   0.362
               70.04       0.188    0.60    0.87    0.52    0.56    0.06    809.    779.   0.886   0.148   0.362
              313.01      15.176    3.10    0.51    1.58    2.21    0.14    681.    651.   0.659   0.198   0.362
              546.01      11.882    2.80    0.54    1.52    2.06    0.15    703.    673.   0.688   0.190   0.361
             1017.01      14.026    3.00    0.52    1.56    2.16    0.13    689.    659.   0.668   0.195   0.361
              431.01      21.740    3.60    0.47    1.68    2.46    0.14    652.    622.   0.617   0.211   0.361
              122.01      10.408    1.90    1.52    2.88    2.34    0.10    746.    716.   0.794   0.163   0.360
              180.01       8.544    1.80    1.46    2.64    2.18    0.09    761.    731.   0.812   0.160   0.360
             1222.01       0.482    0.80    0.94    0.75    0.78    0.05    871.    841.   0.951   0.136   0.359
             1495.01       9.943    2.60    0.57    1.47    1.96    0.12    723.    693.   0.710   0.182   0.359
              735.01      47.887    5.00    0.38    1.92    3.10    0.15    587.    557.   0.531   0.242   0.359
              826.01       6.935    1.70    1.41    2.40    2.02    0.07    779.    749.   0.830   0.155   0.359
              563.01       8.544    1.80    1.46    2.64    2.18    0.12    764.    734.   0.812   0.158   0.359
              534.01      12.550    2.00    1.57    3.14    2.51    0.07    736.    706.   0.778   0.165   0.358
              693.02       6.935    1.70    1.41    2.40    2.02    0.13    780.    750.   0.830   0.155   0.358
             1089.01     229.736    9.60    0.26    2.49    4.89    0.40    459.    429.   0.385   0.332   0.358
              442.01      10.408    1.90    1.52    2.88    2.34    0.11    752.    722.   0.794   0.161   0.357
             1117.01       1.945    1.20    1.13    1.35    1.27    0.10    872.    842.   0.942   0.136   0.357
              834.01      45.617    4.90    0.39    1.90    3.05    0.16    594.    564.   0.536   0.238   0.357
             1519.01       4.392    1.50    1.30    1.95    1.71    0.06    815.    785.   0.870   0.147   0.357
             1203.02       8.203    2.40    0.59    1.42    1.85    0.12    743.    713.   0.733   0.174   0.357
              765.01       8.203    2.40    0.59    1.42    1.85    0.08    743.    713.   0.733   0.174   0.357
              124.02      11.882    2.80    0.54    1.52    2.06    0.20    711.    681.   0.688   0.185   0.357
              620.01     115.052    7.20    0.31    2.22    4.00    0.25    516.    486.   0.445   0.286   0.357
             1101.01       1.416    1.10    1.06    1.17    1.13    0.04    895.    865.   0.970   0.131   0.357
              348.01      55.087    5.30    0.37    1.96    3.23    0.18    579.    549.   0.517   0.246   0.357
              220.02       0.312    0.70    0.91    0.64    0.67    0.05    852.    822.   0.921   0.138   0.356
              500.04       5.951    2.10    0.64    1.35    1.68    0.05    773.    743.   0.773   0.164   0.356
              629.01      14.026    3.00    0.52    1.56    2.16    0.24    699.    669.   0.668   0.190   0.356
              150.02      23.220    3.70    0.46    1.70    2.51    0.19    655.    625.   0.610   0.208   0.356
             1198.02       4.392    1.50    1.30    1.95    1.71    0.10    818.    788.   0.870   0.146   0.356
              935.01      21.740    3.60    0.47    1.68    2.46    0.15    662.    632.   0.617   0.204   0.355
             1602.01       6.935    1.70    1.41    2.40    2.02    0.09    787.    757.   0.830   0.152   0.355
              422.01     844.586   16.50    0.19    3.10    7.16    0.69    363.    333.   0.289   0.435   0.355
              880.01      45.617    4.90    0.39    1.90    3.05    0.18    599.    569.   0.536   0.234   0.354
              587.01      14.026    3.00    0.52    1.56    2.16    0.11    702.    672.   0.668   0.188   0.354
               84.01       6.655    2.20    0.62    1.37    1.74    0.09    767.    737.   0.759   0.166   0.354
             1325.01      17.637    3.30    0.49    1.62    2.31    0.09    682.    652.   0.641   0.196   0.354
              385.01       8.544    1.80    1.46    2.64    2.18    0.11    773.    743.   0.812   0.155   0.354
              639.01       5.951    2.10    0.64    1.35    1.68    0.14    777.    747.   0.773   0.162   0.354
             1335.01     131.021    7.60    0.30    2.27    4.15    0.53    510.    480.   0.434   0.289   0.354
              757.03       7.405    2.30    0.61    1.40    1.79    0.06    759.    729.   0.746   0.168   0.354
              558.01       7.405    2.30    0.61    1.40    1.79    0.09    760.    730.   0.746   0.167   0.353
              520.01      15.176    3.10    0.51    1.58    2.21    0.10    698.    668.   0.659   0.189   0.353
              538.01      12.928    2.90    0.53    1.54    2.11    0.15    713.    683.   0.678   0.183   0.353
             1246.01       8.203    2.40    0.59    1.42    1.85    0.14    753.    723.   0.733   0.169   0.352
              528.03      16.380    3.20    0.50    1.60    2.26    0.15    694.    664.   0.650   0.190   0.352
              821.01      26.353    3.90    0.44    1.73    2.60    0.15    653.    623.   0.596   0.207   0.351
              605.01       5.559    1.60    1.36    2.17    1.86    0.03    812.    782.   0.849   0.145   0.351
             1395.01       9.049    2.50    0.58    1.45    1.90    0.06    748.    718.   0.721   0.171   0.351
              806.02     400.728   12.10    0.23    2.74    5.76    0.30    425.    395.   0.341   0.360   0.351
             1149.01       5.559    1.60    1.36    2.17    1.86    0.07    813.    783.   0.849   0.145   0.351
              812.01       9.049    2.50    0.58    1.45    1.90    0.04    750.    720.   0.721   0.170   0.350
              285.01       5.951    2.10    0.64    1.35    1.68    0.11    787.    757.   0.773   0.158   0.350
              117.01       8.203    2.40    0.59    1.42    1.85    0.12    759.    729.   0.733   0.167   0.350
             1109.01       3.414    1.40    1.24    1.74    1.56    0.07    852.    822.   0.892   0.136   0.349
              339.02       1.416    1.10    1.06    1.17    1.13    0.07    914.    884.   0.970   0.125   0.349
              723.03      16.380    3.20    0.50    1.60    2.26    0.09    700.    670.   0.650   0.187   0.349
              676.01      37.172    4.50    0.41    1.84    2.88    0.07    628.    598.   0.558   0.218   0.348
              672.02      37.172    4.50    0.41    1.84    2.88    0.24    628.    598.   0.558   0.218   0.348
              649.01      12.550    2.00    1.57    3.14    2.51    0.17    757.    727.   0.778   0.156   0.348
              593.01       5.951    2.10    0.64    1.35    1.68    0.09    790.    760.   0.773   0.157   0.348
              878.01      52.621    5.20    0.37    1.95    3.18    0.16    598.    568.   0.522   0.232   0.348
             1031.01      12.550    2.00    1.57    3.14    2.51    0.12    758.    728.   0.778   0.156   0.348
              795.01       8.203    2.40    0.59    1.42    1.85    0.07    763.    733.   0.733   0.165   0.348
              466.01      15.176    3.10    0.51    1.58    2.21    0.09    709.    679.   0.659   0.183   0.348
             1052.01       9.943    2.60    0.57    1.47    1.96    0.13    749.    719.   0.710   0.169   0.346
             1577.01       4.392    1.50    1.30    1.95    1.71    0.03    840.    810.   0.870   0.138   0.346
              377.01      65.615    5.70    0.35    2.02    3.39    0.14    583.    553.   0.499   0.240   0.346
             1405.01       5.951    2.10    0.64    1.35    1.68    0.10    797.    767.   0.773   0.154   0.345
              475.01       8.203    2.40    0.59    1.42    1.85    0.08    770.    740.   0.733   0.162   0.345
             1422.03      12.550    2.00    1.57    3.14    2.51    0.04    766.    736.   0.778   0.152   0.344
              597.01       9.943    2.60    0.57    1.47    1.96    0.14    754.    724.   0.710   0.167   0.344
              657.01       5.559    1.60    1.36    2.17    1.86    0.05    828.    798.   0.849   0.139   0.344
              772.01     157.278    8.20    0.29    2.34    4.38    0.31    512.    482.   0.417   0.283   0.344
             1537.01       1.000    1.00    1.00    1.00    1.00    0.09    952.    922.   1.000   0.118   0.343
             1151.02       1.945    1.20    1.13    1.35    1.27    0.07    907.    877.   0.942   0.125   0.343
              306.01      21.740    3.60    0.47    1.68    2.46    0.17    687.    657.   0.617   0.190   0.343
              753.01     103.864    6.90    0.32    2.18    3.88    0.14    549.    519.   0.455   0.258   0.343
              507.01      33.324    4.30    0.42    1.80    2.78    0.14    649.    619.   0.570   0.206   0.343
             1106.01       0.709    0.90    0.97    0.87    0.89    0.08    935.    905.   0.977   0.120   0.342
              509.02      12.928    2.90    0.53    1.54    2.11    0.10    735.    705.   0.678   0.173   0.342
              481.01       9.049    2.50    0.58    1.45    1.90    0.07    768.    738.   0.721   0.162   0.342
              661.01       5.951    2.10    0.64    1.35    1.68    0.12    806.    776.   0.773   0.151   0.341
              123.02       9.049    2.50    0.58    1.45    1.90    0.15    769.    739.   0.721   0.161   0.341
              612.01      20.317    3.50    0.47    1.66    2.41    0.15    698.    668.   0.625   0.185   0.340
              179.01      17.637    3.30    0.49    1.62    2.31    0.15    711.    681.   0.641   0.180   0.340
              162.01       9.943    2.60    0.57    1.47    1.96    0.12    763.    733.   0.710   0.163   0.340
              238.01       9.049    2.50    0.58    1.45    1.90    0.14    772.    742.   0.721   0.160   0.340
             1402.01       6.935    1.70    1.41    2.40    2.02    0.07    822.    792.   0.830   0.139   0.339
              873.01       2.605    1.30    1.19    1.54    1.42    0.05    896.    866.   0.916   0.125   0.339
             1082.01      10.408    1.90    1.52    2.88    2.34    0.07    793.    763.   0.794   0.144   0.339
             1370.01       6.935    1.70    1.41    2.40    2.02    0.07    825.    795.   0.830   0.138   0.338
              499.01      12.550    2.00    1.57    3.14    2.51    0.09    780.    750.   0.778   0.147   0.338
             1427.01       4.392    1.50    1.30    1.95    1.71    0.03    860.    830.   0.870   0.131   0.338
              235.01       8.544    1.80    1.46    2.64    2.18    0.06    811.    781.   0.812   0.140   0.337
             1499.01      14.026    3.00    0.52    1.56    2.16    0.12    738.    708.   0.668   0.170   0.337
             1440.01       3.414    1.40    1.24    1.74    1.56    0.07    881.    851.   0.892   0.127   0.337
              282.02       0.709    0.90    0.97    0.87    0.89    0.08    949.    919.   0.977   0.116   0.337
              459.01      23.220    3.70    0.46    1.70    2.51    0.14    694.    664.   0.610   0.185   0.336
              523.01     118.931    7.30    0.31    2.23    4.04    0.27    549.    519.   0.442   0.255   0.336
              346.01      18.949    3.40    0.48    1.64    2.36    0.11    714.    684.   0.633   0.178   0.336
              738.02      12.928    2.90    0.53    1.54    2.11    0.11    749.    719.   0.678   0.166   0.336
              938.01      12.928    2.90    0.53    1.54    2.11    0.09    749.    719.   0.678   0.166   0.336
               94.03     103.864    6.90    0.32    2.18    3.88    0.42    564.    534.   0.455   0.246   0.334
              758.01      24.758    3.80    0.45    1.71    2.55    0.12    693.    663.   0.603   0.185   0.334
              582.01       6.655    2.20    0.62    1.37    1.74    0.06    813.    783.   0.759   0.147   0.334
              148.02      14.026    3.00    0.52    1.56    2.16    0.09    746.    716.   0.668   0.167   0.334
              490.03       6.655    2.20    0.62    1.37    1.74    0.07    814.    784.   0.759   0.147   0.334
              857.01       6.655    2.20    0.62    1.37    1.74    0.06    816.    786.   0.759   0.146   0.333
              444.01      12.550    2.00    1.57    3.14    2.51    0.10    793.    763.   0.778   0.142   0.332
              519.01       8.203    2.40    0.59    1.42    1.85    0.10    798.    768.   0.733   0.151   0.332
              733.03       4.392    1.50    1.30    1.95    1.71    0.04    874.    844.   0.870   0.127   0.332
              157.06       6.935    1.70    1.41    2.40    2.02    0.10    841.    811.   0.830   0.132   0.331
              456.01      15.176    3.10    0.51    1.58    2.21    0.11    744.    714.   0.659   0.166   0.331
             1283.01       0.312    0.70    0.91    0.64    0.67    0.08    913.    883.   0.921   0.119   0.331
              153.01      16.380    3.20    0.50    1.60    2.26    0.08    738.    708.   0.650   0.168   0.331
             1606.01       1.945    1.20    1.13    1.35    1.27    0.06    938.    908.   0.942   0.116   0.331
             1583.01       8.544    1.80    1.46    2.64    2.18    0.08    827.    797.   0.812   0.135   0.331
              500.03       4.392    1.50    1.30    1.95    1.71    0.04    879.    849.   0.870   0.125   0.330
             1212.01       8.544    1.80    1.46    2.64    2.18    0.10    828.    798.   0.812   0.134   0.330
             1030.01       8.544    1.80    1.46    2.64    2.18    0.09    829.    799.   0.812   0.134   0.330
              209.01     131.021    7.60    0.30    2.27    4.15    0.28    552.    522.   0.434   0.251   0.330
              853.01      12.928    2.90    0.53    1.54    2.11    0.08    763.    733.   0.678   0.160   0.329
             1083.01       5.559    1.60    1.36    2.17    1.86    0.07    864.    834.   0.849   0.127   0.329
              686.01     339.968   11.30    0.24    2.66    5.49    0.28    472.    442.   0.354   0.306   0.329
             1589.02       7.405    2.30    0.61    1.40    1.79    0.11    817.    787.   0.746   0.144   0.328
              488.01       6.655    2.20    0.62    1.37    1.74    0.09    827.    797.   0.759   0.142   0.328
              117.04       0.312    0.70    0.91    0.64    0.67    0.08    922.    892.   0.921   0.117   0.328
              749.02       3.414    1.40    1.24    1.74    1.56    0.05    905.    875.   0.892   0.120   0.328
             1060.01       4.392    1.50    1.30    1.95    1.71    0.11    886.    856.   0.870   0.123   0.327
              590.01       5.951    2.10    0.64    1.35    1.68    0.10    839.    809.   0.773   0.139   0.327
              457.01       6.655    2.20    0.62    1.37    1.74    0.05    829.    799.   0.759   0.141   0.327
              260.01       1.945    1.20    1.13    1.35    1.27    0.10    949.    919.   0.942   0.113   0.327
              152.03       8.203    2.40    0.59    1.42    1.85    0.11    812.    782.   0.733   0.145   0.326
              954.01       7.405    2.30    0.61    1.40    1.79    0.08    822.    792.   0.746   0.143   0.326
              921.03       4.392    1.50    1.30    1.95    1.71    0.05    890.    860.   0.870   0.122   0.326
              408.02      12.928    2.90    0.53    1.54    2.11    0.11    771.    741.   0.678   0.157   0.326
              316.01      11.882    2.80    0.54    1.52    2.06    0.13    780.    750.   0.688   0.154   0.325
              849.01      11.882    2.80    0.54    1.52    2.06    0.09    780.    750.   0.688   0.154   0.325
              232.01      21.740    3.60    0.47    1.68    2.46    0.11    724.    694.   0.617   0.171   0.325
              804.01      14.026    3.00    0.52    1.56    2.16    0.08    765.    735.   0.668   0.158   0.325
              737.01      62.882    5.60    0.36    2.01    3.35    0.11    627.    597.   0.503   0.210   0.325
              918.01     291.526   10.60    0.24    2.59    5.25    0.23    493.    463.   0.366   0.287   0.324
              635.01      10.888    2.70    0.55    1.49    2.01    0.13    792.    762.   0.699   0.150   0.324
              345.01      68.417    5.80    0.35    2.03    3.44    0.19    622.    592.   0.495   0.211   0.323
              834.03       3.414    1.40    1.24    1.74    1.56    0.07    916.    886.   0.892   0.117   0.323
              163.01      11.882    2.80    0.54    1.52    2.06    0.10    786.    756.   0.688   0.152   0.323
              505.01      15.176    3.10    0.51    1.58    2.21    0.11    764.    734.   0.659   0.158   0.322
              783.01      20.317    3.50    0.47    1.66    2.41    0.07    737.    707.   0.625   0.166   0.322
              845.01      21.740    3.60    0.47    1.68    2.46    0.13    731.    701.   0.617   0.168   0.322
              906.01      11.882    2.80    0.54    1.52    2.06    0.07    789.    759.   0.688   0.150   0.322
              749.01      12.550    2.00    1.57    3.14    2.51    0.06    819.    789.   0.778   0.133   0.321
              497.01       9.049    2.50    0.58    1.45    1.90    0.11    815.    785.   0.721   0.143   0.321
             1163.02       8.544    1.80    1.46    2.64    2.18    0.08    851.    821.   0.812   0.127   0.321
              829.02      10.408    1.90    1.52    2.88    2.34    0.09    837.    807.   0.794   0.129   0.320
              662.01       4.392    1.50    1.30    1.95    1.71    0.10    905.    875.   0.870   0.118   0.320
              626.01       6.655    2.20    0.62    1.37    1.74    0.12    847.    817.   0.759   0.135   0.320
              173.01      10.408    1.90    1.52    2.88    2.34    0.09    838.    808.   0.794   0.129   0.320
             1102.02       0.709    0.90    0.97    0.87    0.89    0.08    996.    966.   0.977   0.105   0.320
             1051.01       6.935    1.70    1.41    2.40    2.02    0.07    871.    841.   0.830   0.123   0.320
              998.01    2293.150   25.00    0.15    3.67    9.58    0.59    338.    308.   0.230   0.443   0.320
              561.01       5.951    2.10    0.64    1.35    1.68    0.06    859.    829.   0.773   0.132   0.319
             1032.01    2566.720   26.20    0.14    3.74    9.90    1.56    330.    300.   0.225   0.454   0.319
              288.01       4.392    1.50    1.30    1.95    1.71    0.09    908.    878.   0.870   0.117   0.319
              567.01      12.928    2.90    0.53    1.54    2.11    0.10    788.    758.   0.678   0.150   0.319
              157.01      14.026    3.00    0.52    1.56    2.16    0.11    781.    751.   0.668   0.152   0.318
              467.01      47.887    5.00    0.38    1.92    3.10    0.14    666.    636.   0.531   0.190   0.318
             1593.01       9.049    2.50    0.58    1.45    1.90    0.09    824.    794.   0.721   0.140   0.318
              108.01      10.888    2.70    0.55    1.49    2.01    0.13    807.    777.   0.699   0.144   0.318
              730.01      15.176    3.10    0.51    1.58    2.21    0.12    776.    746.   0.659   0.153   0.317
             1226.01    2661.930   26.60    0.14    3.76   10.01    0.51    331.    301.   0.223   0.451   0.317
              645.02       9.049    2.50    0.58    1.45    1.90    0.17    827.    797.   0.721   0.139   0.317
              312.01       5.559    1.60    1.36    2.17    1.86    0.10    897.    867.   0.849   0.118   0.316
              335.01      33.324    4.30    0.42    1.80    2.78    0.27    704.    674.   0.570   0.176   0.316
              349.01      11.882    2.80    0.54    1.52    2.06    0.12    802.    772.   0.688   0.145   0.316
             1377.01       5.559    1.60    1.36    2.17    1.86    0.10    898.    868.   0.849   0.118   0.316
             1515.01       2.605    1.30    1.19    1.54    1.42    0.03    957.    927.   0.916   0.109   0.316
              855.01     433.314   12.50    0.22    2.77    5.89    0.23    474.    444.   0.336   0.297   0.316
              318.01      35.218    4.40    0.41    1.82    2.83    0.23    701.    671.   0.564   0.176   0.315
              891.01      10.888    2.70    0.55    1.49    2.01    0.09    815.    785.   0.699   0.141   0.314
             1142.01       4.392    1.50    1.30    1.95    1.71    0.05    922.    892.   0.870   0.113   0.314
             1523.01       6.655    2.20    0.62    1.37    1.74    0.08    865.    835.   0.759   0.129   0.313
              716.01      83.463    6.30    0.33    2.10    3.64    0.18    625.    595.   0.476   0.206   0.313
             1596.01       7.405    2.30    0.61    1.40    1.79    0.06    855.    825.   0.746   0.131   0.313
              219.01      24.758    3.80    0.45    1.71    2.55    0.08    740.    710.   0.603   0.162   0.313
              941.03      93.338    6.60    0.32    2.14    3.76    0.17    615.    585.   0.465   0.211   0.313
             1465.01      45.617    4.90    0.39    1.90    3.05    0.09    683.    653.   0.536   0.182   0.312
             1316.01       0.312    0.70    0.91    0.64    0.67    0.07    966.    936.   0.921   0.106   0.312
             1409.01      23.220    3.70    0.46    1.70    2.51    0.13    749.    719.   0.610   0.159   0.312
              459.02       2.605    1.30    1.19    1.54    1.42    0.07    969.    939.   0.916   0.106   0.312
              350.01       9.049    2.50    0.58    1.45    1.90    0.11    840.    810.   0.721   0.135   0.312
              596.01       6.935    1.70    1.41    2.40    2.02    0.02    894.    864.   0.830   0.116   0.311
             1532.01      12.550    2.00    1.57    3.14    2.51    0.14    846.    816.   0.778   0.124   0.311
              602.01       7.405    2.30    0.61    1.40    1.79    0.11    861.    831.   0.746   0.130   0.311
             1432.01      10.408    1.90    1.52    2.88    2.34    0.07    863.    833.   0.794   0.121   0.310
              111.01       9.049    2.50    0.58    1.45    1.90    0.10    844.    814.   0.721   0.133   0.310
             1530.01      12.550    2.00    1.57    3.14    2.51    0.11    849.    819.   0.778   0.123   0.310
              237.01       7.405    2.30    0.61    1.40    1.79    0.08    864.    834.   0.746   0.129   0.310
              896.02      11.882    2.80    0.54    1.52    2.06    0.07    819.    789.   0.688   0.139   0.310
              907.01      20.317    3.50    0.47    1.66    2.41    0.13    768.    738.   0.625   0.153   0.309
              707.01      18.949    3.40    0.48    1.64    2.36    0.16    775.    745.   0.633   0.151   0.309
              864.01       6.655    2.20    0.62    1.37    1.74    0.05    876.    846.   0.759   0.126   0.309
             1110.01      10.408    1.90    1.52    2.88    2.34    0.09    867.    837.   0.794   0.120   0.309
              659.01       9.049    2.50    0.58    1.45    1.90    0.17    848.    818.   0.721   0.132   0.308
              524.01       7.405    2.30    0.61    1.40    1.79    0.05    868.    838.   0.746   0.127   0.308
              440.02       6.655    2.20    0.62    1.37    1.74    0.06    880.    850.   0.759   0.125   0.308
              248.03      12.550    2.00    1.57    3.14    2.51    0.03    855.    825.   0.778   0.121   0.307
              313.02       6.655    2.20    0.62    1.37    1.74    0.08    882.    852.   0.759   0.124   0.307
              460.01      33.324    4.30    0.42    1.80    2.78    0.13    726.    696.   0.570   0.165   0.307
              664.01       5.951    2.10    0.64    1.35    1.68    0.11    893.    863.   0.773   0.122   0.307
              333.01      10.408    1.90    1.52    2.88    2.34    0.11    873.    843.   0.794   0.118   0.306
              543.01      10.408    1.90    1.52    2.88    2.34    0.05    874.    844.   0.794   0.118   0.306
              534.02       3.414    1.40    1.24    1.74    1.56    0.04    966.    936.   0.892   0.105   0.306
              232.02       5.559    1.60    1.36    2.17    1.86    0.06    927.    897.   0.849   0.110   0.305
              650.01      24.758    3.80    0.45    1.71    2.55    0.10    758.    728.   0.603   0.155   0.305
              189.01     441.694   12.60    0.22    2.78    5.92    0.18    491.    461.   0.334   0.279   0.305
              663.01      10.408    1.90    1.52    2.88    2.34    0.03    876.    846.   0.794   0.117   0.305
              419.01     126.915    7.50    0.30    2.26    4.12    0.15    603.    573.   0.436   0.213   0.305
              815.01     278.478   10.40    0.25    2.57    5.18    0.21    532.    502.   0.369   0.252   0.305
              487.01       8.203    2.40    0.59    1.42    1.85    0.08    867.    837.   0.733   0.127   0.305
              279.02       5.951    2.10    0.64    1.35    1.68    0.13    898.    868.   0.773   0.120   0.305
             1406.01       9.049    2.50    0.58    1.45    1.90    0.10    858.    828.   0.721   0.129   0.305
              870.02      20.317    3.50    0.47    1.66    2.41    0.08    781.    751.   0.625   0.148   0.304
              388.01       0.188    0.60    0.87    0.52    0.56    0.06    955.    925.   0.886   0.104   0.304
              730.02       7.405    2.30    0.61    1.40    1.79    0.09    882.    852.   0.746   0.123   0.303
             1115.01      12.550    2.00    1.57    3.14    2.51    0.11    867.    837.   0.778   0.118   0.303
              508.02      20.317    3.50    0.47    1.66    2.41    0.13    784.    754.   0.625   0.147   0.303
             1151.01       1.945    1.20    1.13    1.35    1.27    0.06   1019.    989.   0.942   0.097   0.303
              551.02       8.544    1.80    1.46    2.64    2.18    0.06    901.    871.   0.812   0.113   0.302
              638.01      43.411    4.80    0.39    1.88    3.01    0.17    712.    682.   0.542   0.168   0.302
             1193.01     467.398   12.90    0.22    2.81    6.02    0.30    493.    463.   0.330   0.276   0.302
              778.01      10.408    1.90    1.52    2.88    2.34    0.03    887.    857.   0.794   0.114   0.301
             1215.01       6.655    2.20    0.62    1.37    1.74    0.14    899.    869.   0.759   0.119   0.301
             1072.01       5.951    2.10    0.64    1.35    1.68    0.09    911.    881.   0.773   0.117   0.300
              367.01      65.615    5.70    0.35    2.02    3.39    0.20    676.    646.   0.499   0.181   0.300
             1344.01       1.416    1.10    1.06    1.17    1.13    0.05   1051.   1021.   0.970   0.093   0.300
              543.02       4.392    1.50    1.30    1.95    1.71    0.04    962.    932.   0.870   0.103   0.300
              670.01       5.951    2.10    0.64    1.35    1.68    0.09    913.    883.   0.773   0.116   0.300
              401.01      80.313    6.20    0.34    2.09    3.60    0.19    659.    629.   0.479   0.187   0.299
               42.01       9.943    2.60    0.57    1.47    1.96    0.14    864.    834.   0.710   0.126   0.299
              474.01       7.405    2.30    0.61    1.40    1.79    0.10    893.    863.   0.746   0.120   0.299
              692.01       0.482    0.80    0.94    0.75    0.78    0.04   1034.   1004.   0.951   0.094   0.299
              483.01       7.405    2.30    0.61    1.40    1.79    0.06    896.    866.   0.746   0.119   0.298
               70.02       5.559    1.60    1.36    2.17    1.86    0.05    949.    919.   0.849   0.105   0.298
             1205.01       5.951    2.10    0.64    1.35    1.68    0.09    918.    888.   0.773   0.115   0.298
              738.01      17.637    3.30    0.49    1.62    2.31    0.10    811.    781.   0.641   0.138   0.298
             1438.01       4.392    1.50    1.30    1.95    1.71    0.07    969.    939.   0.870   0.102   0.298
              887.01       7.405    2.30    0.61    1.40    1.79    0.07    897.    867.   0.746   0.119   0.298
              458.01     284.959   10.50    0.25    2.58    5.21    0.29    545.    515.   0.368   0.240   0.297
              618.01      16.380    3.20    0.50    1.60    2.26    0.09    820.    790.   0.650   0.136   0.297
              308.01      41.269    4.70    0.40    1.87    2.96    0.22    729.    699.   0.547   0.161   0.297
             1441.01       7.405    2.30    0.61    1.40    1.79    0.08    901.    871.   0.746   0.118   0.296
              874.01       6.655    2.20    0.62    1.37    1.74    0.05    912.    882.   0.759   0.116   0.296
             1204.01       6.935    1.70    1.41    2.40    2.02    0.08    936.    906.   0.830   0.106   0.296
              730.03       9.049    2.50    0.58    1.45    1.90    0.09    882.    852.   0.721   0.122   0.296
              707.04       6.655    2.20    0.62    1.37    1.74    0.11    914.    884.   0.759   0.115   0.295
              426.01      20.317    3.50    0.47    1.66    2.41    0.13    803.    773.   0.625   0.140   0.295
              555.01       4.392    1.50    1.30    1.95    1.71    0.05    977.    947.   0.870   0.100   0.295
              700.02      10.408    1.90    1.52    2.88    2.34    0.09    905.    875.   0.794   0.110   0.295
              187.01     362.070   11.60    0.23    2.69    5.59    0.19    529.    499.   0.349   0.249   0.295
              943.01       6.655    2.20    0.62    1.37    1.74    0.04    917.    887.   0.759   0.114   0.294
              284.01       9.049    2.50    0.58    1.45    1.90    0.14    889.    859.   0.721   0.120   0.294
              269.01       6.935    1.70    1.41    2.40    2.02    0.14    948.    918.   0.830   0.103   0.292
             1589.01       6.655    2.20    0.62    1.37    1.74    0.09    925.    895.   0.759   0.112   0.292
              148.01       5.951    2.10    0.64    1.35    1.68    0.05    938.    908.   0.773   0.110   0.291
             1526.01       2.605    1.30    1.19    1.54    1.42    0.05   1033.   1003.   0.916   0.092   0.291
              559.01       3.414    1.40    1.24    1.74    1.56    0.05   1011.    981.   0.892   0.095   0.291
              708.02       6.935    1.70    1.41    2.40    2.02    0.08    954.    924.   0.830   0.101   0.290
              869.01      16.380    3.20    0.50    1.60    2.26    0.07    839.    809.   0.650   0.130   0.290
             1608.01       5.559    1.60    1.36    2.17    1.86    0.09    973.    943.   0.849   0.099   0.290
             1219.01       1.945    1.20    1.13    1.35    1.27    0.04   1061.   1031.   0.942   0.089   0.289
              279.01      45.617    4.90    0.39    1.90    3.05    0.19    738.    708.   0.536   0.156   0.289
              752.01      10.888    2.70    0.55    1.49    2.01    0.09    883.    853.   0.699   0.120   0.289
              572.01       8.203    2.40    0.59    1.42    1.85    0.10    912.    882.   0.733   0.114   0.289
             1364.02      10.888    2.70    0.55    1.49    2.01    0.07    884.    854.   0.699   0.119   0.289
              116.02      43.411    4.80    0.39    1.88    3.01    0.26    745.    715.   0.542   0.154   0.289
             1312.01       5.559    1.60    1.36    2.17    1.86    0.07    980.    950.   0.849   0.098   0.288
              321.01       0.709    0.90    0.97    0.87    0.89    0.04   1098.   1068.   0.977   0.084   0.287
              810.01      10.888    2.70    0.55    1.49    2.01    0.05    889.    859.   0.699   0.118   0.287
             1216.01      12.550    2.00    1.57    3.14    2.51    0.10    913.    883.   0.778   0.106   0.287
              628.01      15.176    3.10    0.51    1.58    2.21    0.12    856.    826.   0.659   0.125   0.287
             1498.01       8.544    1.80    1.46    2.64    2.18    0.06    947.    917.   0.812   0.101   0.287
              520.02      12.550    2.00    1.57    3.14    2.51    0.06    914.    884.   0.778   0.106   0.287
              800.02       9.049    2.50    0.58    1.45    1.90    0.07    912.    882.   0.721   0.113   0.286
              531.01      33.324    4.30    0.42    1.80    2.78    0.04    779.    749.   0.570   0.143   0.286
             1305.01       2.605    1.30    1.19    1.54    1.42    0.04   1050.   1020.   0.916   0.089   0.286
              871.01     311.755   10.90    0.24    2.62    5.35    0.10    561.    531.   0.361   0.226   0.286
             1094.01       8.203    2.40    0.59    1.42    1.85    0.07    923.    893.   0.733   0.111   0.285
             1396.01       9.049    2.50    0.58    1.45    1.90    0.07    914.    884.   0.721   0.113   0.285
             1336.01       9.049    2.50    0.58    1.45    1.90    0.10    914.    884.   0.721   0.113   0.285
              537.01       3.414    1.40    1.24    1.74    1.56    0.04   1033.   1003.   0.892   0.090   0.284
              756.01      23.220    3.70    0.46    1.70    2.51    0.10    821.    791.   0.610   0.132   0.284
             1576.01      16.380    3.20    0.50    1.60    2.26    0.10    858.    828.   0.650   0.124   0.283
              911.01       6.935    1.70    1.41    2.40    2.02    0.05    975.    945.   0.830   0.097   0.283
              718.01       5.559    1.60    1.36    2.17    1.86    0.06    994.    964.   0.849   0.095   0.283
               89.02      60.217    5.50    0.36    1.99    3.31    0.50    728.    698.   0.508   0.157   0.282
              856.01     485.007   13.10    0.22    2.83    6.09    0.23    528.    498.   0.327   0.243   0.282
              166.01      23.220    3.70    0.46    1.70    2.51    0.11    826.    796.   0.610   0.130   0.282
              720.01      14.026    3.00    0.52    1.56    2.16    0.06    879.    849.   0.668   0.119   0.282
              209.02      45.617    4.90    0.39    1.90    3.05    0.14    758.    728.   0.536   0.148   0.282
               89.01      35.218    4.40    0.41    1.82    2.83    0.43    786.    756.   0.564   0.140   0.281
              714.01       6.655    2.20    0.62    1.37    1.74    0.05    959.    929.   0.759   0.104   0.281
              420.01      33.324    4.30    0.42    1.80    2.78    0.06    793.    763.   0.570   0.138   0.281
              730.04       8.544    1.80    1.46    2.64    2.18    0.08    967.    937.   0.812   0.097   0.280
              940.01      20.317    3.50    0.47    1.66    2.41    0.06    846.    816.   0.625   0.125   0.280
              107.01       5.951    2.10    0.64    1.35    1.68    0.07    973.    943.   0.773   0.101   0.280
              987.01       2.605    1.30    1.19    1.54    1.42    0.04   1071.   1041.   0.916   0.085   0.280
             1102.01      16.380    3.20    0.50    1.60    2.26    0.11    871.    841.   0.650   0.120   0.279
             1161.01       7.405    2.30    0.61    1.40    1.79    0.07    955.    925.   0.746   0.104   0.279
              124.01       7.405    2.30    0.61    1.40    1.79    0.11    956.    926.   0.746   0.104   0.278
              844.01      11.882    2.80    0.54    1.52    2.06    0.05    908.    878.   0.688   0.112   0.278
              117.02       2.605    1.30    1.19    1.54    1.42    0.06   1078.   1048.   0.916   0.084   0.278
             1166.01      11.882    2.80    0.54    1.52    2.06    0.08    910.    880.   0.688   0.112   0.277
              528.01      15.176    3.10    0.51    1.58    2.21    0.09    885.    855.   0.659   0.116   0.277
             1015.01       8.203    2.40    0.59    1.42    1.85    0.09    951.    921.   0.733   0.104   0.276
              490.01       7.405    2.30    0.61    1.40    1.79    0.05    962.    932.   0.746   0.102   0.276
              787.02       6.655    2.20    0.62    1.37    1.74    0.06    974.    944.   0.759   0.100   0.276
              599.01       7.405    2.30    0.61    1.40    1.79    0.07    965.    935.   0.746   0.102   0.275
              904.01       5.951    2.10    0.64    1.35    1.68    0.03    990.    960.   0.773   0.098   0.275
              601.01       6.935    1.70    1.41    2.40    2.02    0.06   1004.    974.   0.830   0.091   0.275
             1306.03       8.544    1.80    1.46    2.64    2.18    0.07    986.    956.   0.812   0.093   0.274
             1437.01       6.655    2.20    0.62    1.37    1.74    0.07    981.    951.   0.759   0.099   0.274
              338.01       7.405    2.30    0.61    1.40    1.79    0.07    970.    940.   0.746   0.101   0.274
             1148.01       6.655    2.20    0.62    1.37    1.74    0.10    982.    952.   0.759   0.099   0.274
              623.02       6.935    1.70    1.41    2.40    2.02    0.13   1008.    978.   0.830   0.090   0.273
              721.01       7.405    2.30    0.61    1.40    1.79    0.12    972.    942.   0.746   0.100   0.273
              951.01      74.226    6.00    0.34    2.06    3.52    0.11    732.    702.   0.487   0.153   0.273
              153.02      15.176    3.10    0.51    1.58    2.21    0.05    900.    870.   0.659   0.112   0.272
             1304.01       8.544    1.80    1.46    2.64    2.18    0.06    994.    964.   0.812   0.091   0.272
              429.01      43.411    4.80    0.39    1.88    3.01    0.08    790.    760.   0.542   0.136   0.272
              956.01      50.221    5.10    0.38    1.93    3.14    0.08    776.    746.   0.526   0.140   0.271
              585.01      12.550    2.00    1.57    3.14    2.51    0.05    962.    932.   0.778   0.095   0.271
             1114.01       6.655    2.20    0.62    1.37    1.74    0.07    990.    960.   0.759   0.097   0.271
              417.01     196.722    9.00    0.27    2.43    4.68    0.14    638.    608.   0.398   0.185   0.271
             1531.01       3.414    1.40    1.24    1.74    1.56    0.06   1079.   1049.   0.892   0.082   0.271
              712.01       0.482    0.80    0.94    0.75    0.78    0.03   1131.   1101.   0.951   0.077   0.271
              369.01       2.605    1.30    1.19    1.54    1.42    0.07   1103.   1073.   0.916   0.080   0.271
             1475.01       8.544    1.80    1.46    2.64    2.18    0.02    999.    969.   0.812   0.090   0.271
             1445.01       1.945    1.20    1.13    1.35    1.27    0.08   1129.   1099.   0.942   0.078   0.270
              360.01       2.605    1.30    1.19    1.54    1.42    0.07   1105.   1075.   0.916   0.080   0.270
              676.02      12.928    2.90    0.53    1.54    2.11    0.03    924.    894.   0.678   0.107   0.270
              994.01       4.392    1.50    1.30    1.95    1.71    0.05   1062.   1032.   0.870   0.083   0.269
             1425.01       0.482    0.80    0.94    0.75    0.78    0.03   1136.   1106.   0.951   0.076   0.269
              216.01     157.278    8.20    0.29    2.34    4.38    0.14    665.    635.   0.417   0.174   0.269
               49.01      11.882    2.80    0.54    1.52    2.06    0.08    936.    906.   0.688   0.105   0.269
              900.01      33.324    4.30    0.42    1.80    2.78    0.12    828.    798.   0.570   0.126   0.268
              366.01     265.778   10.20    0.25    2.55    5.11    0.40    616.    586.   0.373   0.193   0.268
              786.01       8.544    1.80    1.46    2.64    2.18    0.05   1010.    980.   0.812   0.088   0.267
             1533.01       3.414    1.40    1.24    1.74    1.56    0.07   1092.   1062.   0.892   0.080   0.267
              769.01      12.550    2.00    1.57    3.14    2.51    0.05    976.    946.   0.778   0.092   0.267
              672.01      28.006    4.00    0.44    1.75    2.65    0.13    851.    821.   0.589   0.121   0.267
              658.02       6.655    2.20    0.62    1.37    1.74    0.06   1005.    975.   0.759   0.094   0.267
             1501.01       6.935    1.70    1.41    2.40    2.02    0.04   1033.   1003.   0.830   0.085   0.266
              723.01      11.882    2.80    0.54    1.52    2.06    0.05    948.    918.   0.688   0.102   0.265
              923.01      12.928    2.90    0.53    1.54    2.11    0.06    941.    911.   0.678   0.103   0.265
             1488.01       9.943    2.60    0.57    1.47    1.96    0.05    971.    941.   0.710   0.098   0.264
              934.01      16.380    3.20    0.50    1.60    2.26    0.06    919.    889.   0.650   0.107   0.264
              955.01       7.405    2.30    0.61    1.40    1.79    0.07   1005.    975.   0.746   0.093   0.264
              870.01      21.740    3.60    0.47    1.68    2.46    0.06    889.    859.   0.617   0.112   0.263
              762.01       6.935    1.70    1.41    2.40    2.02    0.05   1043.   1013.   0.830   0.084   0.263
              205.01     161.928    8.30    0.28    2.35    4.42    0.10    677.    647.   0.415   0.167   0.263
             1353.01    1055.030   18.10    0.18    3.22    7.64    0.52    499.    469.   0.275   0.251   0.263
              104.01      11.882    2.80    0.54    1.52    2.06    0.03    957.    927.   0.688   0.100   0.263
               69.01       5.559    1.60    1.36    2.17    1.86    0.06   1066.   1036.   0.849   0.081   0.263
              510.02      10.888    2.70    0.55    1.49    2.01    0.07    968.    938.   0.699   0.098   0.262
              667.01      89.974    6.50    0.33    2.13    3.72    0.04    741.    711.   0.468   0.147   0.262
              745.01     235.531    9.70    0.26    2.50    4.93    0.12    643.    613.   0.383   0.179   0.262
              751.01      16.380    3.20    0.50    1.60    2.26    0.06    926.    896.   0.650   0.105   0.262
             1434.01       3.414    1.40    1.24    1.74    1.56    0.03   1114.   1084.   0.892   0.077   0.261
              780.01       6.655    2.20    0.62    1.37    1.74    0.03   1025.    995.   0.759   0.090   0.261
              305.01       9.049    2.50    0.58    1.45    1.90    0.05    993.    963.   0.721   0.094   0.261
             1505.01       6.655    2.20    0.62    1.37    1.74    0.06   1029.    999.   0.759   0.089   0.260
              880.03      11.882    2.80    0.54    1.52    2.06    0.07    966.    936.   0.688   0.098   0.260
              511.01      11.882    2.80    0.54    1.52    2.06    0.08    966.    936.   0.688   0.098   0.260
                3.01      43.411    4.80    0.39    1.88    3.01    0.05    826.    796.   0.542   0.125   0.260
              678.01       6.935    1.70    1.41    2.40    2.02    0.07   1058.   1028.   0.830   0.081   0.259
              711.02       2.605    1.30    1.19    1.54    1.42    0.05   1148.   1118.   0.916   0.073   0.259
              922.01      10.888    2.70    0.55    1.49    2.01    0.06    981.    951.   0.699   0.096   0.259
              464.02      10.888    2.70    0.55    1.49    2.01    0.06    983.    953.   0.699   0.095   0.258
             1468.01      23.220    3.70    0.46    1.70    2.51    0.08    903.    873.   0.610   0.108   0.257
             1536.01       1.000    1.00    1.00    1.00    1.00    0.05   1239.   1209.   1.000   0.066   0.257
             1129.01      10.888    2.70    0.55    1.49    2.01    0.06    989.    959.   0.699   0.094   0.256
              197.01     272.085   10.30    0.25    2.56    5.14    0.13    645.    615.   0.371   0.176   0.256
              361.01       2.605    1.30    1.19    1.54    1.42    0.04   1162.   1132.   0.916   0.071   0.255
              725.01     100.282    6.80    0.32    2.17    3.84    0.07    750.    720.   0.458   0.142   0.255
              223.01      10.888    2.70    0.55    1.49    2.01    0.04    994.    964.   0.699   0.093   0.255
              302.01      24.758    3.80    0.45    1.71    2.55    0.18    903.    873.   0.603   0.108   0.255
              151.01      39.189    4.60    0.40    1.85    2.92    0.11    853.    823.   0.552   0.117   0.255
              408.01      21.740    3.60    0.47    1.68    2.46    0.07    919.    889.   0.617   0.105   0.254
              456.02       6.935    1.70    1.41    2.40    2.02    0.05   1077.   1047.   0.830   0.078   0.254
              521.01      26.353    3.90    0.44    1.73    2.60    0.09    898.    868.   0.596   0.109   0.254
              234.01      20.317    3.50    0.47    1.66    2.41    0.09    927.    897.   0.625   0.103   0.254
              861.01       4.392    1.50    1.30    1.95    1.71    0.03   1120.   1090.   0.870   0.074   0.254
             1060.02       1.945    1.20    1.13    1.35    1.27    0.06   1193.   1163.   0.942   0.069   0.254
              370.01      45.617    4.90    0.39    1.90    3.05    0.26    840.    810.   0.536   0.120   0.253
              469.01      60.217    5.50    0.36    1.99    3.31    0.10    812.    782.   0.508   0.126   0.253
              139.02       1.945    1.20    1.13    1.35    1.27    0.04   1199.   1169.   0.942   0.068   0.253
             1221.02      55.087    5.30    0.37    1.96    3.23    0.30    822.    792.   0.517   0.123   0.253
              193.01     588.740   14.20    0.21    2.92    6.44    0.23    578.    548.   0.314   0.203   0.252
              791.01     111.248    7.10    0.31    2.21    3.96    0.11    748.    718.   0.448   0.142   0.252
              512.01       9.943    2.60    0.57    1.47    1.96    0.07   1015.    985.   0.710   0.089   0.252
              525.01      33.324    4.30    0.42    1.80    2.78    0.10    880.    850.   0.570   0.111   0.252
             1597.01       5.951    2.10    0.64    1.35    1.68    0.08   1073.   1043.   0.773   0.082   0.252
             1426.03    5546.350   36.10    0.12    4.26   12.40    0.57    382.    352.   0.188   0.337   0.252
              220.01       9.943    2.60    0.57    1.47    1.96    0.03   1017.    987.   0.710   0.089   0.251
              776.01      33.324    4.30    0.42    1.80    2.78    0.05    882.    852.   0.570   0.111   0.251
              960.01     559.283   13.90    0.21    2.89    6.35    0.12    585.    555.   0.317   0.199   0.251
              917.01      16.380    3.20    0.50    1.60    2.26    0.07    962.    932.   0.650   0.097   0.251
              617.01    1013.480   17.80    0.18    3.20    7.55    0.22    529.    499.   0.278   0.227   0.251
              687.01       6.935    1.70    1.41    2.40    2.02    0.05   1090.   1060.   0.830   0.076   0.251
              671.01       3.414    1.40    1.24    1.74    1.56    0.05   1156.   1126.   0.892   0.071   0.251
              846.01     704.394   15.30    0.20    3.01    6.79    0.18    564.    534.   0.301   0.209   0.251
             1202.01       4.392    1.50    1.30    1.95    1.71    0.01   1134.   1104.   0.870   0.072   0.251
             1095.01    2473.530   25.80    0.14    3.72    9.79    0.27    452.    422.   0.226   0.276   0.250
              418.01     450.168   12.70    0.22    2.79    5.96    0.15    610.    580.   0.333   0.187   0.250
              743.01     311.755   10.90    0.24    2.62    5.35    0.14    647.    617.   0.361   0.173   0.250
              480.01      10.888    2.70    0.55    1.49    2.01    0.05   1015.    985.   0.699   0.089   0.249
             1118.01       8.544    1.80    1.46    2.64    2.18    0.08   1079.   1049.   0.812   0.076   0.249
              509.01      10.888    2.70    0.55    1.49    2.01    0.05   1018.    988.   0.699   0.088   0.248
              246.01      10.408    1.90    1.52    2.88    2.34    0.06   1062.   1032.   0.794   0.078   0.248
             1363.01       8.544    1.80    1.46    2.64    2.18    0.05   1082.   1052.   0.812   0.076   0.248
             1116.01       3.414    1.40    1.24    1.74    1.56    0.05   1174.   1144.   0.892   0.068   0.247
              939.01       5.559    1.60    1.36    2.17    1.86    0.04   1129.   1099.   0.849   0.072   0.246
             1001.01       9.943    2.60    0.57    1.47    1.96    0.16   1036.   1006.   0.710   0.086   0.246
             1603.01       3.414    1.40    1.24    1.74    1.56    0.04   1176.   1146.   0.892   0.068   0.246
              827.01      15.176    3.10    0.51    1.58    2.21    0.07    990.    960.   0.659   0.092   0.246
              330.01       9.049    2.50    0.58    1.45    1.90    0.08   1051.   1021.   0.721   0.083   0.245
               82.02      23.220    3.70    0.46    1.70    2.51    0.10    944.    914.   0.610   0.099   0.245
              159.01      15.176    3.10    0.51    1.58    2.21    0.09    993.    963.   0.659   0.091   0.245
              262.01       5.559    1.60    1.36    2.17    1.86    0.08   1136.   1106.   0.849   0.071   0.245
              150.01      18.949    3.40    0.48    1.64    2.36    0.08    969.    939.   0.633   0.095   0.245
             1474.01     339.968   11.30    0.24    2.66    5.49    0.36    652.    622.   0.354   0.169   0.245
              398.02      20.317    3.50    0.47    1.66    2.41    0.05    962.    932.   0.625   0.096   0.244
              377.03       1.000    1.00    1.00    1.00    1.00    0.03   1294.   1264.   1.000   0.060   0.244
              341.01      17.637    3.30    0.49    1.62    2.31    0.07    979.    949.   0.641   0.093   0.244
              110.01      12.928    2.90    0.53    1.54    2.11    0.10   1015.    985.   0.678   0.088   0.244
              317.01      23.220    3.70    0.46    1.70    2.51    0.17    948.    918.   0.610   0.098   0.244
              149.01      29.719    4.10    0.43    1.77    2.69    0.12    920.    890.   0.582   0.102   0.244
              244.01      37.172    4.50    0.41    1.84    2.88    0.11    895.    865.   0.558   0.107   0.244
              167.01       8.544    1.80    1.46    2.64    2.18    0.06   1102.   1072.   0.812   0.073   0.243
              343.01       6.655    2.20    0.62    1.37    1.74    0.06   1095.   1065.   0.759   0.078   0.243
              824.01     433.314   12.50    0.22    2.77    5.89    0.12    634.    604.   0.336   0.175   0.242
              439.01      10.888    2.70    0.55    1.49    2.01    0.03   1044.   1014.   0.699   0.084   0.242
              281.01      23.220    3.70    0.46    1.70    2.51    0.15    960.    930.   0.610   0.095   0.241
             1214.01       4.392    1.50    1.30    1.95    1.71    0.05   1176.   1146.   0.870   0.067   0.241
              660.01       6.655    2.20    0.62    1.37    1.74    0.07   1107.   1077.   0.759   0.076   0.240
              665.01       7.405    2.30    0.61    1.40    1.79    0.07   1096.   1066.   0.746   0.077   0.240
             1396.02      10.408    1.90    1.52    2.88    2.34    0.05   1097.   1067.   0.794   0.072   0.240
              850.01     181.326    8.70    0.28    2.40    4.57    0.09    734.    704.   0.405   0.141   0.239
             1337.01       3.414    1.40    1.24    1.74    1.56    0.03   1207.   1177.   0.892   0.064   0.239
              579.01       4.392    1.50    1.30    1.95    1.71    0.03   1184.   1154.   0.870   0.066   0.239
              741.01    1141.070   18.70    0.17    3.26    7.81    0.16    548.    518.   0.270   0.211   0.239
              991.01      16.380    3.20    0.50    1.60    2.26    0.11   1011.    981.   0.650   0.087   0.238
              876.01     207.395    9.20    0.27    2.45    4.75    0.07    723.    693.   0.394   0.144   0.238
             1165.01      12.928    2.90    0.53    1.54    2.11    0.07   1039.   1009.   0.678   0.083   0.238
              500.05       1.945    1.20    1.13    1.35    1.27    0.02   1265.   1235.   0.942   0.060   0.238
              816.01      39.189    4.60    0.40    1.85    2.92    0.08    912.    882.   0.552   0.102   0.237
              739.01      12.550    2.00    1.57    3.14    2.51    0.02   1088.   1058.   0.778   0.072   0.237
              658.01       4.392    1.50    1.30    1.95    1.71    0.04   1192.   1162.   0.870   0.065   0.237
             1089.02      65.615    5.70    0.35    2.02    3.39    0.11    854.    824.   0.499   0.113   0.237
              423.01     229.736    9.60    0.26    2.49    4.89    0.15    715.    685.   0.385   0.146   0.237
              654.01      12.928    2.90    0.53    1.54    2.11    0.09   1043.   1013.   0.678   0.083   0.237
              301.01       5.559    1.60    1.36    2.17    1.86    0.07   1172.   1142.   0.849   0.066   0.236
              117.03       2.605    1.30    1.19    1.54    1.42    0.04   1247.   1217.   0.916   0.061   0.236
             1236.02       6.935    1.70    1.41    2.40    2.02    0.07   1155.   1125.   0.830   0.067   0.235
              787.01      12.928    2.90    0.53    1.54    2.11    0.05   1050.   1020.   0.678   0.082   0.235
             1561.01      62.882    5.60    0.36    2.01    3.35    0.09    866.    836.   0.503   0.110   0.235
             1511.01       5.559    1.60    1.36    2.17    1.86    0.04   1180.   1150.   0.849   0.065   0.235
             1424.01       5.559    1.60    1.36    2.17    1.86    0.02   1181.   1151.   0.849   0.065   0.234
              532.01       7.405    2.30    0.61    1.40    1.79    0.05   1119.   1089.   0.746   0.074   0.234
              907.03       5.951    2.10    0.64    1.35    1.68    0.06   1145.   1115.   0.773   0.071   0.234
               82.01     100.282    6.80    0.32    2.17    3.84    0.13    816.    786.   0.458   0.120   0.234
              341.02       7.405    2.30    0.61    1.40    1.79    0.06   1121.   1091.   0.746   0.073   0.234
              123.01       7.405    2.30    0.61    1.40    1.79    0.07   1121.   1091.   0.746   0.073   0.234
             1385.01     682.463   15.10    0.20    2.99    6.73    0.14    611.    581.   0.303   0.180   0.234
              497.02       6.935    1.70    1.41    2.40    2.02    0.05   1165.   1135.   0.830   0.065   0.233
             1590.02      10.408    1.90    1.52    2.88    2.34    0.03   1128.   1098.   0.794   0.068   0.232
              852.01       8.203    2.40    0.59    1.42    1.85    0.05   1116.   1086.   0.733   0.074   0.232
             1341.01       5.559    1.60    1.36    2.17    1.86    0.06   1195.   1165.   0.849   0.063   0.231
              280.01      15.176    3.10    0.51    1.58    2.21    0.11   1048.   1018.   0.659   0.081   0.231
             1315.01      10.408    1.90    1.52    2.88    2.34    0.07   1136.   1106.   0.794   0.067   0.230
             1605.01       8.544    1.80    1.46    2.64    2.18    0.06   1156.   1126.   0.812   0.065   0.230
              295.01      12.550    2.00    1.57    3.14    2.51    0.06   1118.   1088.   0.778   0.068   0.230
              903.01      62.882    5.60    0.36    2.01    3.35    0.06    883.    853.   0.503   0.105   0.230
              265.01       1.416    1.10    1.06    1.17    1.13    0.05   1333.   1303.   0.970   0.054   0.230
              508.01      24.758    3.80    0.45    1.71    2.55    0.08    995.    965.   0.603   0.088   0.230
              242.01      65.615    5.70    0.35    2.02    3.39    0.07    880.    850.   0.499   0.106   0.230
              830.01     135.203    7.70    0.30    2.28    4.19    0.04    797.    767.   0.431   0.122   0.230
             1407.01       0.312    0.70    0.91    0.64    0.67    0.02   1275.   1245.   0.921   0.057   0.229
              535.01      17.637    3.30    0.49    1.62    2.31    0.07   1041.   1011.   0.641   0.081   0.228
              323.01      12.928    2.90    0.53    1.54    2.11    0.07   1081.   1051.   0.678   0.077   0.228
              472.01      16.380    3.20    0.50    1.60    2.26    0.05   1053.   1023.   0.650   0.080   0.228
              191.01     362.070   11.60    0.23    2.69    5.59    0.12    696.    666.   0.349   0.148   0.227
              221.01      35.218    4.40    0.41    1.82    2.83    0.04    965.    935.   0.564   0.091   0.227
             1306.02       6.655    2.20    0.62    1.37    1.74    0.05   1166.   1136.   0.759   0.068   0.227
              200.01     103.864    6.90    0.32    2.18    3.88    0.07    840.    810.   0.455   0.112   0.226
              893.01       9.943    2.60    0.57    1.47    1.96    0.05   1121.   1091.   0.710   0.072   0.226
              756.02       9.943    2.60    0.57    1.47    1.96    0.05   1122.   1092.   0.710   0.072   0.226
              858.01     247.374    9.90    0.25    2.52    5.00    0.11    743.    713.   0.379   0.134   0.226
             1502.01      10.408    1.90    1.52    2.88    2.34    0.03   1161.   1131.   0.794   0.064   0.225
              627.01      12.928    2.90    0.53    1.54    2.11    0.08   1096.   1066.   0.678   0.074   0.224
              355.01      12.550    2.00    1.57    3.14    2.51    0.06   1145.   1115.   0.778   0.065   0.224
              115.02       6.655    2.20    0.62    1.37    1.74    0.08   1177.   1147.   0.759   0.066   0.224
             1054.01      12.550    2.00    1.57    3.14    2.51    0.04   1146.   1116.   0.778   0.064   0.224
              244.02       9.943    2.60    0.57    1.47    1.96    0.07   1131.   1101.   0.710   0.070   0.224
              283.01      41.269    4.70    0.40    1.87    2.96    0.13    960.    930.   0.547   0.091   0.223
              623.01      12.550    2.00    1.57    3.14    2.51    0.10   1151.   1121.   0.778   0.064   0.223
              137.02     176.356    8.60    0.28    2.38    4.53    0.12    790.    760.   0.407   0.122   0.223
              797.01     135.203    7.70    0.30    2.28    4.19    0.09    821.    791.   0.431   0.115   0.223
             1309.01       9.049    2.50    0.58    1.45    1.90    0.10   1147.   1117.   0.721   0.069   0.223
              665.03       0.482    0.80    0.94    0.75    0.78    0.04   1350.   1320.   0.951   0.052   0.222
             1128.01       1.000    1.00    1.00    1.00    1.00    0.02   1408.   1378.   1.000   0.049   0.222
              647.01       8.544    1.80    1.46    2.64    2.18    0.06   1198.   1168.   0.812   0.060   0.221
              171.01       9.049    2.50    0.58    1.45    1.90    0.07   1155.   1125.   0.721   0.068   0.221
             1436.01       4.392    1.50    1.30    1.95    1.71    0.04   1270.   1240.   0.870   0.056   0.221
              240.01      15.176    3.10    0.51    1.58    2.21    0.05   1093.   1063.   0.659   0.074   0.221
              573.01      16.380    3.20    0.50    1.60    2.26    0.07   1084.   1054.   0.650   0.075   0.221
             1338.01       6.935    1.70    1.41    2.40    2.02    0.04   1225.   1195.   0.830   0.058   0.220
             1163.01      10.408    1.90    1.52    2.88    2.34    0.04   1183.   1153.   0.794   0.061   0.220
             1015.02       5.559    1.60    1.36    2.17    1.86    0.05   1248.   1218.   0.849   0.057   0.220
               63.01      93.338    6.60    0.32    2.14    3.76    0.09    874.    844.   0.465   0.104   0.220
              941.01      57.618    5.40    0.37    1.98    3.27    0.07    934.    904.   0.512   0.094   0.220
              863.01      10.888    2.70    0.55    1.49    2.01    0.04   1139.   1109.   0.699   0.069   0.219
              834.04       3.414    1.40    1.24    1.74    1.56    0.03   1303.   1273.   0.892   0.054   0.219
              239.01      26.353    3.90    0.44    1.73    2.60    0.06   1033.   1003.   0.596   0.080   0.219
              645.01       9.943    2.60    0.57    1.47    1.96    0.09   1154.   1124.   0.710   0.067   0.219
              470.01      28.006    4.00    0.44    1.75    2.65    0.05   1027.    997.   0.589   0.081   0.218
              327.01       2.605    1.30    1.19    1.54    1.42    0.04   1334.   1304.   0.916   0.052   0.218
              384.01      12.550    2.00    1.57    3.14    2.51    0.06   1173.   1143.   0.778   0.061   0.218
             1339.01      12.550    2.00    1.57    3.14    2.51    0.05   1180.   1150.   0.778   0.060   0.217
              297.01       8.544    1.80    1.46    2.64    2.18    0.07   1222.   1192.   0.812   0.058   0.217
             1342.01       5.559    1.60    1.36    2.17    1.86    0.05   1272.   1242.   0.849   0.055   0.216
             1221.01      47.887    5.00    0.38    1.92    3.10    0.21    974.    944.   0.531   0.087   0.215
              936.02      12.550    2.00    1.57    3.14    2.51    0.01   1191.   1161.   0.778   0.059   0.215
             1240.01       4.392    1.50    1.30    1.95    1.71    0.03   1302.   1272.   0.870   0.053   0.214
             1144.01       5.559    1.60    1.36    2.17    1.86    0.04   1280.   1250.   0.849   0.054   0.214
              432.01      21.740    3.60    0.47    1.68    2.46    0.06   1079.   1049.   0.617   0.074   0.214
              600.01       5.951    2.10    0.64    1.35    1.68    0.05   1243.   1213.   0.773   0.059   0.214
             1525.01       5.951    2.10    0.64    1.35    1.68    0.08   1244.   1214.   0.773   0.059   0.213
              578.01      24.758    3.80    0.45    1.71    2.55    0.07   1065.   1035.   0.603   0.075   0.213
             1299.01     265.778   10.20    0.25    2.55    5.11    0.30    778.    748.   0.373   0.122   0.213
             1019.01       1.945    1.20    1.13    1.35    1.27    0.04   1394.   1364.   0.942   0.048   0.213
               85.03      12.550    2.00    1.57    3.14    2.51    0.08   1207.   1177.   0.778   0.057   0.211
              975.01       1.416    1.10    1.06    1.17    1.13    0.04   1434.   1404.   0.970   0.046   0.211
              583.01       5.559    1.60    1.36    2.17    1.86    0.04   1296.   1266.   0.849   0.052   0.211
              607.01     100.282    6.80    0.32    2.17    3.84    0.06    901.    871.   0.458   0.097   0.211
              261.01      62.882    5.60    0.36    2.01    3.35    0.13    959.    929.   0.503   0.088   0.211
              833.01      33.324    4.30    0.42    1.80    2.78    0.05   1042.   1012.   0.570   0.077   0.210
              928.01       7.405    2.30    0.61    1.40    1.79    0.04   1238.   1208.   0.746   0.059   0.209
              481.02       6.935    1.70    1.41    2.40    2.02    0.03   1283.   1253.   0.830   0.053   0.209
             1369.01       8.544    1.80    1.46    2.64    2.18    0.04   1269.   1239.   0.812   0.053   0.207
               46.01      16.380    3.20    0.50    1.60    2.26    0.04   1147.   1117.   0.650   0.066   0.207
              813.01      89.974    6.50    0.33    2.13    3.72    0.05    932.    902.   0.468   0.091   0.207
              763.01     493.955   13.20    0.21    2.83    6.12    0.15    730.    700.   0.326   0.131   0.207
              339.01       4.392    1.50    1.30    1.95    1.71    0.03   1349.   1319.   0.870   0.049   0.206
              284.03      10.408    1.90    1.52    2.88    2.34    0.07   1258.   1228.   0.794   0.053   0.206
              137.03       7.405    2.30    0.61    1.40    1.79    0.05   1258.   1228.   0.746   0.057   0.205
              284.02      12.550    2.00    1.57    3.14    2.51    0.07   1241.   1211.   0.778   0.054   0.205
              428.01      62.882    5.60    0.36    2.01    3.35    0.07    989.    959.   0.503   0.083   0.204
             1020.01    1668.100   21.90    0.16    3.48    8.73    0.29    610.    580.   0.248   0.167   0.203
              526.01       9.943    2.60    0.57    1.47    1.96    0.03   1233.   1203.   0.710   0.058   0.203
              452.01       7.405    2.30    0.61    1.40    1.79    0.05   1272.   1242.   0.746   0.055   0.203
              188.01     148.214    8.00    0.29    2.32    4.31    0.05    889.    859.   0.422   0.097   0.202
              398.03      10.408    1.90    1.52    2.88    2.34    0.03   1276.   1246.   0.794   0.051   0.202
              944.01      26.353    3.90    0.44    1.73    2.60    0.04   1110.   1080.   0.596   0.069   0.202
              953.01      35.218    4.40    0.41    1.82    2.83    0.05   1075.   1045.   0.564   0.072   0.202
              137.01      74.226    6.00    0.34    2.06    3.52    0.08    979.    949.   0.487   0.083   0.202
              890.01     131.021    7.60    0.30    2.27    4.15    0.08    908.    878.   0.434   0.094   0.201
              889.01     369.619   11.70    0.23    2.70    5.62    0.08    784.    754.   0.347   0.116   0.201
             1510.01       8.544    1.80    1.46    2.64    2.18    0.02   1305.   1275.   0.812   0.050   0.201
              698.01     392.813   12.00    0.23    2.73    5.72    0.10    778.    748.   0.343   0.118   0.201
              112.02       6.935    1.70    1.41    2.40    2.02    0.05   1330.   1300.   0.830   0.049   0.201
              777.01    5509.490   36.00    0.12    4.25   12.38    0.23    501.    471.   0.188   0.214   0.200
              510.01      10.888    2.70    0.55    1.49    2.01    0.04   1238.   1208.   0.699   0.057   0.200
              168.01      23.220    3.70    0.46    1.70    2.51    0.10   1142.   1112.   0.610   0.065   0.199
              851.01      60.217    5.50    0.36    1.99    3.31    0.06   1019.    989.   0.508   0.078   0.199
              988.01      83.463    6.30    0.33    2.10    3.64    0.10    977.    947.   0.476   0.083   0.199
              794.01       5.951    2.10    0.64    1.35    1.68    0.04   1326.   1296.   0.773   0.051   0.198
              771.01     671.649   15.00    0.20    2.99    6.69    9.51    114.     84.   0.305   0.128   0.198
              756.03       8.544    1.80    1.46    2.64    2.18    0.04   1324.   1294.   0.812   0.048   0.198
              782.01      62.882    5.60    0.36    2.01    3.35    0.07   1019.    989.   0.503   0.077   0.197
              710.01       6.935    1.70    1.41    2.40    2.02    0.07   1350.   1320.   0.830   0.047   0.197
              961.01      26.353    3.90    0.44    1.73    2.60    0.02   1136.   1106.   0.596   0.065   0.197
              800.01      10.888    2.70    0.55    1.49    2.01    0.04   1254.   1224.   0.699   0.056   0.197
             1059.01       3.414    1.40    1.24    1.74    1.56    0.02   1430.   1400.   0.892   0.043   0.197
              354.01      45.617    4.90    0.39    1.90    3.05    0.13   1064.   1034.   0.536   0.072   0.197
               94.02      28.006    4.00    0.44    1.75    2.65    0.10   1129.   1099.   0.589   0.066   0.197
              926.01      18.949    3.40    0.48    1.64    2.36    0.04   1184.   1154.   0.633   0.061   0.196
              673.01       8.544    1.80    1.46    2.64    2.18    0.06   1333.   1303.   0.812   0.047   0.196
              916.01      26.353    3.90    0.44    1.73    2.60    0.04   1142.   1112.   0.596   0.064   0.196
              116.01      41.269    4.70    0.40    1.87    2.96    0.12   1087.   1057.   0.547   0.069   0.195
              822.01     354.613   11.50    0.23    2.68    5.55    0.08    813.    783.   0.351   0.108   0.195
              191.02      11.882    2.80    0.54    1.52    2.06    0.04   1256.   1226.   0.688   0.055   0.195
              141.01      33.324    4.30    0.42    1.80    2.78    0.04   1120.   1090.   0.570   0.066   0.194
              883.01     253.423   10.00    0.25    2.53    5.04    0.03    859.    829.   0.377   0.099   0.194
              880.04      12.550    2.00    1.57    3.14    2.51    0.04   1305.   1275.   0.778   0.048   0.193
              442.02       3.414    1.40    1.24    1.74    1.56    0.03   1455.   1425.   0.892   0.042   0.193
              168.03      12.550    2.00    1.57    3.14    2.51    0.08   1310.   1280.   0.778   0.048   0.193
              766.01      24.758    3.80    0.45    1.71    2.55    0.05   1174.   1144.   0.603   0.061   0.191
              212.01      89.974    6.50    0.33    2.13    3.72    0.06   1007.    977.   0.468   0.077   0.190
              192.01     247.374    9.90    0.25    2.52    5.00    0.10    885.    855.   0.379   0.094   0.188
              155.01      24.758    3.80    0.45    1.71    2.55    0.07   1194.   1164.   0.603   0.059   0.188
              597.02       3.414    1.40    1.24    1.74    1.56    0.03   1494.   1464.   0.892   0.039   0.187
              371.01   18886.000   60.10    0.09    5.23   17.73    0.92    430.    400.   0.140   0.248   0.186
             1391.01     161.928    8.30    0.28    2.35    4.42    0.08    951.    921.   0.415   0.083   0.186
              138.01     856.943   16.60    0.19    3.11    7.19    0.28    746.    716.   0.288   0.119   0.186
             1152.01    1215.790   19.20    0.17    3.30    7.96    0.05    706.    676.   0.266   0.129   0.186
              343.02       5.559    1.60    1.36    2.17    1.86    0.03   1451.   1421.   0.849   0.040   0.185
              623.03       8.544    1.80    1.46    2.64    2.18    0.07   1403.   1373.   0.812   0.042   0.185
             1003.01     578.823   14.10    0.21    2.91    6.41    0.08    796.    766.   0.315   0.108   0.185
               22.01     218.398    9.40    0.26    2.47    4.82    0.08    920.    890.   0.389   0.087   0.184
             1314.01      20.317    3.50    0.47    1.66    2.41    0.09   1243.   1213.   0.625   0.054   0.184
              913.01     202.017    9.10    0.27    2.44    4.71    0.05    932.    902.   0.396   0.085   0.184
              938.02       2.605    1.30    1.19    1.54    1.42    0.02   1555.   1525.   0.916   0.036   0.183
              379.01      15.176    3.10    0.51    1.58    2.21    0.07   1297.   1267.   0.659   0.050   0.182
             1560.01    3441.590   29.60    0.13    3.93   10.79    0.20    610.    580.   0.210   0.156   0.181
              779.01     458.735   12.80    0.22    2.80    5.99    0.10    851.    821.   0.331   0.096   0.179
              433.01      68.417    5.80    0.35    2.03    3.44    0.05   1106.   1076.   0.495   0.064   0.178
              115.01      18.949    3.40    0.48    1.64    2.36    0.06   1290.   1260.   0.633   0.050   0.178
              931.01     176.356    8.60    0.28    2.38    4.53    0.05    978.    948.   0.407   0.078   0.178
              680.01     131.021    7.60    0.30    2.27    4.15    0.09   1019.    989.   0.434   0.073   0.178
             1306.01       5.951    2.10    0.64    1.35    1.68    0.03   1461.   1431.   0.773   0.041   0.177
              254.01     476.155   13.00    0.22    2.82    6.05    0.03    854.    824.   0.329   0.095   0.177
              554.01      77.235    6.10    0.34    2.08    3.56    0.05   1098.   1068.   0.483   0.065   0.177
              941.02      18.949    3.40    0.48    1.64    2.36    0.04   1299.   1269.   0.633   0.049   0.177
             1557.01      52.621    5.20    0.37    1.95    3.18    0.04   1153.   1123.   0.522   0.060   0.177
             1376.01      11.882    2.80    0.54    1.52    2.06    0.09   1367.   1337.   0.688   0.045   0.177
              368.01     959.598   17.40    0.18    3.17    7.43    0.54    772.    742.   0.281   0.110   0.176
              755.01      11.882    2.80    0.54    1.52    2.06    0.04   1380.   1350.   0.688   0.044   0.175
              728.01     247.374    9.90    0.25    2.52    5.00    0.07    952.    922.   0.379   0.080   0.174
              257.01      28.006    4.00    0.44    1.75    2.65    0.07   1260.   1230.   0.589   0.051   0.174
             1549.01    4404.810   32.80    0.12    4.09   11.59    0.19    609.    579.   0.198   0.153   0.174
              168.02      10.408    1.90    1.52    2.88    2.34    0.06   1457.   1427.   0.794   0.038   0.174
               94.01     441.694   12.60    0.22    2.78    5.92    0.17    881.    851.   0.334   0.090   0.173
              665.02       1.945    1.20    1.13    1.35    1.27    0.03   1666.   1636.   0.942   0.032   0.173
               85.01      16.380    3.20    0.50    1.60    2.26    0.07   1348.   1318.   0.650   0.046   0.173
             1300.01       6.935    1.70    1.41    2.40    2.02    0.01   1515.   1485.   0.830   0.036   0.173
             1367.01       1.945    1.20    1.13    1.35    1.27    0.01   1669.   1639.   0.942   0.032   0.172
                4.01      28.006    4.00    0.44    1.75    2.65    0.05   1272.   1242.   0.589   0.050   0.172
             1428.01      10.408    1.90    1.52    2.88    2.34    0.02   1469.   1439.   0.794   0.037   0.172
              805.01     608.871   14.40    0.20    2.94    6.50    0.09    850.    820.   0.311   0.094   0.171
             1177.01     241.410    9.80    0.26    2.51    4.96    0.04    975.    945.   0.381   0.076   0.171
               12.01     441.694   12.60    0.22    2.78    5.92    0.14    898.    868.   0.334   0.086   0.170
              573.02       5.951    2.10    0.64    1.35    1.68    0.03   1521.   1491.   0.773   0.037   0.169
                7.01      23.220    3.70    0.46    1.70    2.51    0.04   1320.   1290.   0.610   0.047   0.169
              217.01     278.478   10.40    0.25    2.57    5.18    0.05    965.    935.   0.369   0.077   0.169
             1050.01       7.405    2.30    0.61    1.40    1.79    0.02   1492.   1462.   0.746   0.038   0.169
             1053.01      10.408    1.90    1.52    2.88    2.34    0.02   1496.   1466.   0.794   0.036   0.168
             1387.01    3875.840   31.10    0.13    4.01   11.17    0.17    645.    615.   0.204   0.139   0.168
              625.01     682.463   15.10    0.20    2.99    6.73    0.24    858.    828.   0.303   0.091   0.167
              304.01      47.887    5.00    0.38    1.92    3.10    0.09   1229.   1199.   0.531   0.052   0.167
              929.01     196.722    9.00    0.27    2.43    4.68    0.07   1028.    998.   0.398   0.069   0.166
              688.01       9.049    2.50    0.58    1.45    1.90    0.04   1495.   1465.   0.721   0.038   0.164
              760.01     235.531    9.70    0.26    2.50    4.93    0.06   1012.    982.   0.383   0.071   0.164
              506.01       9.049    2.50    0.58    1.45    1.90    0.03   1498.   1468.   0.721   0.037   0.164
              292.01      12.550    2.00    1.57    3.14    2.51    0.04   1508.   1478.   0.778   0.034   0.164
              201.01     139.463    7.80    0.29    2.29    4.23    0.05   1094.   1064.   0.428   0.062   0.163
              517.01      21.740    3.60    0.47    1.68    2.46    0.04   1373.   1343.   0.617   0.043   0.163
              838.01     139.463    7.80    0.29    2.29    4.23    0.06   1096.   1066.   0.428   0.062   0.163
              732.01      12.928    2.90    0.53    1.54    2.11    0.02   1454.   1424.   0.678   0.039   0.163
              961.03     298.181   10.70    0.24    2.60    5.28    0.03    994.    964.   0.364   0.072   0.162
              674.01     339.968   11.30    0.24    2.66    5.49    0.14    989.    959.   0.354   0.072   0.159
             1227.01     161.928    8.30    0.28    2.35    4.42    0.03   1096.   1066.   0.415   0.061   0.159
              190.01     820.186   16.30    0.19    3.09    7.10    0.11    873.    843.   0.291   0.087   0.159
              843.01      83.463    6.30    0.33    2.10    3.64    0.05   1199.   1169.   0.476   0.053   0.159
             1176.01     325.683   11.10    0.24    2.64    5.42    0.03   1004.    974.   0.357   0.070   0.158
              204.01     143.799    7.90    0.29    2.30    4.27    0.04   1128.   1098.   0.425   0.058   0.157
             1013.01       5.559    1.60    1.36    2.17    1.86    0.01   1671.   1641.   0.849   0.029   0.157
              206.01     148.214    8.00    0.29    2.32    4.31    0.06   1132.   1102.   0.422   0.057   0.156
              229.01      74.226    6.00    0.34    2.06    3.52    0.05   1237.   1207.   0.487   0.050   0.156
              105.01     152.707    8.10    0.29    2.33    4.34    0.09   1130.   1100.   0.420   0.057   0.155
              496.01      10.888    2.70    0.55    1.49    2.01    0.03   1544.   1514.   0.699   0.034   0.155
              144.01      93.338    6.60    0.32    2.14    3.76    0.05   1228.   1198.   0.465   0.050   0.152
               72.01       2.605    1.30    1.19    1.54    1.42    0.02   1820.   1790.   0.916   0.025   0.152
              984.01      35.218    4.40    0.41    1.82    2.83    0.05   1388.   1358.   0.564   0.040   0.151
              425.01     493.955   13.20    0.21    2.83    6.12    0.06    997.    967.   0.326   0.068   0.149
              161.01      55.087    5.30    0.37    1.96    3.23    0.04   1336.   1306.   0.517   0.043   0.149
              403.01    6970.220   39.70    0.11    4.42   13.25    0.15    667.    637.   0.178   0.123   0.148
              685.01      11.882    2.80    0.54    1.52    2.06    0.04   1600.   1570.   0.688   0.031   0.147
              410.01     425.028   12.40    0.22    2.76    5.86    0.08   1039.   1009.   0.337   0.063   0.146
              127.01     235.531    9.70    0.26    2.50    4.93    0.05   1128.   1098.   0.383   0.056   0.146
             1169.01       1.945    1.20    1.13    1.35    1.27    0.01   1925.   1895.   0.942   0.022   0.145
              412.01     118.931    7.30    0.31    2.23    4.04    0.05   1241.   1211.   0.442   0.048   0.145
              976.01    2883.590   27.50    0.14    3.81   10.24    0.34    787.    757.   0.219   0.096   0.145
              774.01     761.004   15.80    0.19    3.05    6.94    0.08    969.    939.   0.296   0.070   0.144
             1546.01      68.417    5.80    0.35    2.03    3.44    0.02   1339.   1309.   0.495   0.042   0.144
              191.03       3.414    1.40    1.24    1.74    1.56    0.02   1869.   1839.   0.892   0.023   0.143
               18.01     157.278    8.20    0.29    2.34    4.38    0.04   1210.   1180.   0.417   0.049   0.143
              183.01     247.374    9.90    0.25    2.52    5.00    0.04   1143.   1113.   0.379   0.054   0.143
              644.01    5255.480   35.30    0.12    4.22   12.21    0.27    728.    698.   0.190   0.106   0.142
              611.01     118.931    7.30    0.31    2.23    4.04    0.04   1265.   1235.   0.442   0.045   0.142
              840.01     298.181   10.70    0.24    2.60    5.28    0.04   1128.   1098.   0.364   0.054   0.141
              258.01      37.172    4.50    0.41    1.84    2.88    0.05   1479.   1449.   0.558   0.035   0.139
              131.01     196.722    9.00    0.27    2.43    4.68    0.06   1211.   1181.   0.398   0.048   0.138
             1150.01       0.312    0.70    0.91    0.64    0.67    0.01   1970.   1940.   0.921   0.020   0.137
             1241.01     278.478   10.40    0.25    2.57    5.18    0.17   1172.   1142.   0.369   0.050   0.136
               85.02       6.935    1.70    1.41    2.40    2.02    0.04   1853.   1823.   0.830   0.022   0.136
              199.01     181.326    8.70    0.28    2.40    4.57    0.04   1246.   1216.   0.405   0.045   0.136
              208.01     171.467    8.50    0.28    2.37    4.49    0.04   1259.   1229.   0.410   0.045   0.135
               17.01     218.398    9.40    0.26    2.47    4.82    0.04   1222.   1192.   0.389   0.047   0.135
              135.01     161.928    8.30    0.28    2.35    4.42    0.04   1280.   1250.   0.415   0.043   0.134
              799.01      37.172    4.50    0.41    1.84    2.88    0.03   1541.   1511.   0.558   0.032   0.133
              895.01     458.735   12.80    0.22    2.80    5.99    0.05   1123.   1093.   0.331   0.053   0.133
              908.01     347.245   11.40    0.23    2.67    5.52    0.06   1170.   1140.   0.352   0.050   0.132
              703.01       6.935    1.70    1.41    2.40    2.02    0.03   1896.   1866.   0.830   0.021   0.132
             1230.01   12252.600   50.20    0.10    4.86   15.63    0.67    680.    650.   0.155   0.112   0.132
              214.01     400.728   12.10    0.23    2.74    5.76    0.04   1149.   1119.   0.341   0.051   0.132
              194.01     392.813   12.00    0.23    2.73    5.72    0.04   1163.   1133.   0.343   0.050   0.131
             1187.01       9.049    2.50    0.58    1.45    1.90    0.01   1819.   1789.   0.721   0.024   0.130
              421.01     619.084   14.50    0.20    2.94    6.54    0.05   1098.   1068.   0.310   0.054   0.130
              186.01     354.613   11.50    0.23    2.68    5.55    0.04   1186.   1156.   0.351   0.048   0.130
              697.01      28.006    4.00    0.44    1.75    2.65    0.04   1631.   1601.   0.589   0.028   0.129
                5.01     107.519    7.00    0.31    2.19    3.92    0.06   1406.   1376.   0.452   0.036   0.127
              195.01     384.990   11.90    0.23    2.72    5.69    0.04   1195.   1165.   0.344   0.047   0.127
               20.01     458.735   12.80    0.22    2.80    5.99    0.05   1175.   1145.   0.331   0.048   0.126
             1543.01     660.936   14.90    0.20    2.98    6.66    0.05   1132.   1102.   0.306   0.050   0.124
               97.01     318.675   11.00    0.24    2.63    5.38    0.06   1256.   1226.   0.359   0.043   0.124
              972.01      55.087    5.30    0.37    1.96    3.23    0.13   1570.   1540.   0.517   0.029   0.123
              609.01     392.813   12.00    0.23    2.73    5.72    0.05   1230.   1200.   0.343   0.044   0.123
              340.01    3669.440   30.40    0.13    3.97   10.99    0.17    892.    862.   0.207   0.072   0.122
             1459.01     103.864    6.90    0.32    2.18    3.88    0.01   1465.   1435.   0.455   0.033   0.122
             1241.02     107.519    7.00    0.31    2.19    3.92    0.11   1476.   1446.   0.452   0.032   0.120
              882.01     530.705   13.60    0.21    2.87    6.25    0.03   1206.   1176.   0.321   0.045   0.120
               10.01     284.959   10.50    0.25    2.58    5.21    0.05   1317.   1287.   0.368   0.039   0.119
              256.01     650.323   14.80    0.20    2.97    6.63    0.02   1190.   1160.   0.307   0.045   0.118
              684.01     161.928    8.30    0.28    2.35    4.42    0.05   1444.   1414.   0.415   0.033   0.116
              552.01     332.781   11.20    0.24    2.65    5.45    0.04   1346.   1316.   0.355   0.036   0.113
              767.01     588.740   14.20    0.21    2.92    6.44    0.04   1251.   1221.   0.314   0.041   0.113
              196.01     253.423   10.00    0.25    2.53    5.04    0.03   1407.   1377.   0.377   0.033   0.112
              356.01      68.417    5.80    0.35    2.03    3.44    0.03   1685.   1655.   0.495   0.024   0.110
             1419.01      68.417    5.80    0.35    2.03    3.44    0.02   1704.   1674.   0.495   0.024   0.108
             1442.01       5.559    1.60    1.36    2.17    1.86    0.01   2272.   2242.   0.849   0.014   0.108
              128.01     749.478   15.70    0.19    3.04    6.91    0.06   1270.   1240.   0.297   0.039   0.107
              299.01      21.740    3.60    0.47    1.68    2.46    0.03   2032.   2002.   0.617   0.017   0.102
             1285.01     148.214    8.00    0.29    2.32    4.31    0.02   1636.   1606.   0.422   0.025   0.102
              897.01     392.813   12.00    0.23    2.73    5.72    0.03   1447.   1417.   0.343   0.030   0.102
              801.01     229.736    9.60    0.26    2.49    4.89    0.03   1555.   1525.   0.385   0.027   0.101
              225.01      45.617    4.90    0.39    1.90    3.05    0.02   1933.   1903.   0.536   0.018   0.098
             1382.01    2099.690   24.10    0.15    3.62    9.34    0.05   1221.   1191.   0.235   0.038   0.095
              809.01     408.735   12.20    0.23    2.75    5.79    0.03   1542.   1512.   0.340   0.026   0.094
               98.01     400.728   12.10    0.23    2.74    5.76    0.08   1558.   1528.   0.341   0.025   0.093
              202.01     354.613   11.50    0.23    2.68    5.55    0.03   1589.   1559.   0.351   0.024   0.093
              100.01     530.705   13.60    0.21    2.87    6.25    0.10   1523.   1493.   0.321   0.026   0.091
              981.01      71.287    5.90    0.35    2.05    3.48    0.06   1958.   1928.   0.491   0.017   0.091
               64.01     171.467    8.50    0.28    2.37    4.49    0.03   1790.   1760.   0.410   0.020   0.090
              203.01     549.660   13.80    0.21    2.89    6.31    0.03   1548.   1518.   0.318   0.025   0.089
              961.02     608.871   14.40    0.20    2.94    6.50    0.01   1554.   1524.   0.311   0.025   0.087
             1541.01    1439.910   20.60    0.16    3.39    8.36    0.04   1424.   1394.   0.256   0.028   0.085
              823.01     181.326    8.70    0.28    2.40    4.57    0.02   1904.   1874.   0.405   0.017   0.082
             1448.01    1976.220   23.50    0.15    3.58    9.17    0.04   1413.   1383.   0.238   0.028   0.081
                2.01     362.070   11.60    0.23    2.69    5.59    0.04   1773.   1743.   0.349   0.019   0.081
             1540.01    1231.070   19.30    0.17    3.31    7.99    0.02   1546.   1516.   0.266   0.023   0.079
             1401.01      12.550    2.00    1.57    3.14    2.51    0.01   2850.   2820.   0.778   0.007   0.075
              102.01     103.864    6.90    0.32    2.18    3.88    0.03   2205.   2175.   0.455   0.012   0.075
                1.01    1390.010   20.30    0.17    3.37    8.28    0.04   1633.   1603.   0.258   0.020   0.072
             1452.01    1686.470   22.00    0.16    3.48    8.76    0.02   2592.   2562.   0.247   0.006   0.040
               13.01    1423.160   20.50    0.17    3.39    8.33    0.04   3287.   3257.   0.257   0.004   0.030